
# From lspdd.org
# 
# Name: DEL CREE BR30 Domestique
# Indice spectral Valeur 
# MSI 0.25 
# SLI 0.46 
# IPI 0.63 
# Pourcentage de bleu 16.6 
# Caractéristique Valeur 
# CCT calculée (K) 2691 
# CCT du fabricant (K) 2700 
# Tension (V) 120 
# Puissance (W) 9.5 
# Efficacité lumineuse (Lum/W) 68.4 
#
# Image: '/app/system/img_2s/2469/medium_image2.JPG?1413485789'
# Image: '/app/system/img_1s/2469/medium_image1.JPG?1413485793'
# 

  273.00  0.0000E+000  
  273.50  0.0000E+000  
  274.00  0.0000E+000  
  274.50  0.0000E+000  
  275.00  0.0000E+000  
  275.50  0.0000E+000  
  276.00  0.0000E+000  
  276.50  0.0000E+000  
  277.00  0.0000E+000  
  277.50  0.0000E+000  
  278.00  0.0000E+000  
  278.50  0.0000E+000  
  279.00  0.0000E+000  
  279.50  0.0000E+000  
  280.00  0.0000E+000  
  280.50  0.0000E+000  
  281.00  0.0000E+000  
  281.50  0.0000E+000  
  282.00  0.0000E+000  
  282.50  0.0000E+000  
  283.00  0.0000E+000  
  283.50  0.0000E+000  
  284.00  0.0000E+000  
  284.50  0.0000E+000  
  285.00  0.0000E+000  
  285.50  0.0000E+000  
  286.00  0.0000E+000  
  286.50  0.0000E+000  
  287.00  0.0000E+000  
  287.50  0.0000E+000  
  288.00  0.0000E+000  
  288.50  0.0000E+000  
  289.00  0.0000E+000  
  289.50  0.0000E+000  
  290.00  0.0000E+000  
  290.50  0.0000E+000  
  291.00  0.0000E+000  
  291.50  0.0000E+000  
  292.00  0.0000E+000  
  292.50  0.0000E+000  
  293.00  0.0000E+000  
  293.50  0.0000E+000  
  294.00  0.0000E+000  
  294.50  0.0000E+000  
  295.00  0.0000E+000  
  295.50  0.0000E+000  
  296.00  0.0000E+000  
  296.50  0.0000E+000  
  297.00  0.0000E+000  
  297.50  0.0000E+000  
  298.00  0.0000E+000  
  298.50  0.0000E+000  
  299.00  0.0000E+000  
  299.50  0.0000E+000  
  300.00  1.3620E-005  
  300.50  4.4904E-005  
  301.00  4.6284E-005  
  301.50  1.8398E-005  
  302.00  0.0000E+000  
  302.50  2.3166E-005  
  303.00  6.9428E-005  
  303.50  1.3020E-004  
  304.00  1.5292E-004  
  304.50  1.1779E-004  
  305.00  7.9127E-005  
  305.50  3.7613E-005  
  306.00  0.0000E+000  
  306.50  0.0000E+000  
  307.00  5.1767E-006  
  307.50  6.0296E-007  
  308.00  2.8509E-006  
  308.50  5.9633E-006  
  309.00  1.0900E-007  
  309.50  0.0000E+000  
  310.00  0.0000E+000  
  310.50  0.0000E+000  
  311.00  3.9490E-005  
  311.50  9.3978E-005  
  312.00  8.8463E-005  
  312.50  3.6185E-005  
  313.00  0.0000E+000  
  313.50  0.0000E+000  
  314.00  0.0000E+000  
  314.50  1.0141E-005  
  315.00  1.4224E-005  
  315.50  0.0000E+000  
  316.00  0.0000E+000  
  316.50  0.0000E+000  
  317.00  0.0000E+000  
  317.50  0.0000E+000  
  318.00  0.0000E+000  
  318.50  0.0000E+000  
  319.00  0.0000E+000  
  319.50  0.0000E+000  
  320.00  0.0000E+000  
  320.50  0.0000E+000  
  321.00  0.0000E+000  
  321.50  0.0000E+000  
  322.00  0.0000E+000  
  322.50  0.0000E+000  
  323.00  0.0000E+000  
  323.50  0.0000E+000  
  324.00  0.0000E+000  
  324.50  0.0000E+000  
  325.00  0.0000E+000  
  325.50  1.5452E-005  
  326.00  7.2623E-005  
  326.50  9.2652E-005  
  327.00  9.7122E-005  
  327.50  7.5205E-005  
  328.00  3.3081E-005  
  328.50  1.0769E-005  
  329.00  0.0000E+000  
  329.50  0.0000E+000  
  330.00  0.0000E+000  
  330.50  0.0000E+000  
  331.00  0.0000E+000  
  331.50  0.0000E+000  
  332.00  0.0000E+000  
  332.50  1.7490E-005  
  333.00  5.5995E-005  
  333.50  6.5052E-005  
  334.00  6.3235E-005  
  334.50  3.9770E-005  
  335.00  0.0000E+000  
  335.50  0.0000E+000  
  336.00  0.0000E+000  
  336.50  0.0000E+000  
  337.00  0.0000E+000  
  337.50  0.0000E+000  
  338.00  0.0000E+000  
  338.50  0.0000E+000  
  339.00  0.0000E+000  
  339.50  0.0000E+000  
  340.00  0.0000E+000  
  340.50  0.0000E+000  
  341.00  0.0000E+000  
  341.50  0.0000E+000  
  342.00  0.0000E+000  
  342.50  2.5767E-005  
  343.00  6.4256E-005  
  343.50  1.9204E-005  
  344.00  0.0000E+000  
  344.50  0.0000E+000  
  345.00  1.7445E-005  
  345.50  3.9306E-005  
  346.00  3.7719E-005  
  346.50  5.2251E-005  
  347.00  3.9911E-005  
  347.50  6.5277E-005  
  348.00  1.1517E-004  
  348.50  1.1392E-004  
  349.00  1.3772E-004  
  349.50  9.1887E-005  
  350.00  1.4887E-005  
  350.50  0.0000E+000  
  351.00  0.0000E+000  
  351.50  0.0000E+000  
  352.00  0.0000E+000  
  352.50  4.5354E-007  
  353.00  3.6070E-005  
  353.50  8.6331E-005  
  354.00  7.3641E-005  
  354.50  3.3179E-005  
  355.00  4.0643E-005  
  355.50  2.3711E-005  
  356.00  1.3337E-005  
  356.50  1.8735E-006  
  357.00  2.2273E-005  
  357.50  5.3299E-005  
  358.00  8.6059E-005  
  358.50  4.9580E-005  
  359.00  0.0000E+000  
  359.50  0.0000E+000  
  360.00  4.9943E-006  
  360.50  5.7990E-005  
  361.00  9.2398E-005  
  361.50  4.3516E-005  
  362.00  3.6800E-006  
  362.50  0.0000E+000  
  363.00  7.8404E-006  
  363.50  5.3659E-005  
  364.00  8.6890E-005  
  364.50  6.7140E-005  
  365.00  8.6449E-005  
  365.50  7.4560E-005  
  366.00  5.9842E-005  
  366.50  1.9873E-005  
  367.00  0.0000E+000  
  367.50  0.0000E+000  
  368.00  0.0000E+000  
  368.50  0.0000E+000  
  369.00  0.0000E+000  
  369.50  0.0000E+000  
  370.00  0.0000E+000  
  370.50  0.0000E+000  
  371.00  0.0000E+000  
  371.50  0.0000E+000  
  372.00  1.2719E-005  
  372.50  2.7163E-005  
  373.00  1.7757E-005  
  373.50  3.3922E-006  
  374.00  0.0000E+000  
  374.50  0.0000E+000  
  375.00  0.0000E+000  
  375.50  3.7369E-006  
  376.00  4.0641E-005  
  376.50  1.8569E-005  
  377.00  0.0000E+000  
  377.50  0.0000E+000  
  378.00  0.0000E+000  
  378.50  0.0000E+000  
  379.00  0.0000E+000  
  379.50  0.0000E+000  
  380.00  0.0000E+000  
  380.50  0.0000E+000  
  381.00  0.0000E+000  
  381.50  2.6102E-005  
  382.00  7.2544E-005  
  382.50  4.8344E-005  
  383.00  4.3824E-005  
  383.50  3.7421E-005  
  384.00  7.0031E-005  
  384.50  1.0171E-004  
  385.00  1.0449E-004  
  385.50  9.2882E-005  
  386.00  2.5877E-005  
  386.50  0.0000E+000  
  387.00  0.0000E+000  
  387.50  0.0000E+000  
  388.00  0.0000E+000  
  388.50  0.0000E+000  
  389.00  0.0000E+000  
  389.50  2.4898E-005  
  390.00  3.1964E-005  
  390.50  0.0000E+000  
  391.00  0.0000E+000  
  391.50  1.1446E-005  
  392.00  1.4993E-005  
  392.50  0.0000E+000  
  393.00  0.0000E+000  
  393.50  0.0000E+000  
  394.00  0.0000E+000  
  394.50  0.0000E+000  
  395.00  0.0000E+000  
  395.50  1.5727E-005  
  396.00  8.8753E-005  
  396.50  1.1534E-004  
  397.00  1.0908E-004  
  397.50  3.6182E-005  
  398.00  8.3919E-006  
  398.50  2.4347E-005  
  399.00  3.6765E-005  
  399.50  6.5372E-005  
  400.00  8.0066E-005  
  400.50  7.8700E-005  
  401.00  9.9567E-005  
  401.50  1.0472E-004  
  402.00  1.1366E-004  
  402.50  1.4360E-004  
  403.00  1.5768E-004  
  403.50  1.6612E-004  
  404.00  1.7435E-004  
  404.50  1.5240E-004  
  405.00  1.3394E-004  
  405.50  1.1931E-004  
  406.00  1.5360E-004  
  406.50  1.8629E-004  
  407.00  1.8206E-004  
  407.50  1.7960E-004  
  408.00  1.6132E-004  
  408.50  2.1904E-004  
  409.00  2.7652E-004  
  409.50  2.9287E-004  
  410.00  2.7621E-004  
  410.50  1.8958E-004  
  411.00  1.5768E-004  
  411.50  1.3385E-004  
  412.00  1.4189E-004  
  412.50  1.6963E-004  
  413.00  2.2667E-004  
  413.50  2.5976E-004  
  414.00  2.9530E-004  
  414.50  3.0007E-004  
  415.00  3.3110E-004  
  415.50  4.3113E-004  
  416.00  5.5017E-004  
  416.50  6.4090E-004  
  417.00  6.9057E-004  
  417.50  7.1850E-004  
  418.00  7.6486E-004  
  418.50  8.1724E-004  
  419.00  8.5648E-004  
  419.50  8.8969E-004  
  420.00  9.4981E-004  
  420.50  1.0273E-003  
  421.00  1.1013E-003  
  421.50  1.1718E-003  
  422.00  1.2181E-003  
  422.50  1.2646E-003  
  423.00  1.3396E-003  
  423.50  1.4034E-003  
  424.00  1.4760E-003  
  424.50  1.5600E-003  
  425.00  1.6287E-003  
  425.50  1.6995E-003  
  426.00  1.7709E-003  
  426.50  1.8654E-003  
  427.00  1.9632E-003  
  427.50  2.0825E-003  
  428.00  2.1753E-003  
  428.50  2.2930E-003  
  429.00  2.3855E-003  
  429.50  2.5144E-003  
  430.00  2.6218E-003  
  430.50  2.7193E-003  
  431.00  2.8041E-003  
  431.50  2.8808E-003  
  432.00  2.9916E-003  
  432.50  3.1614E-003  
  433.00  3.3048E-003  
  433.50  3.4740E-003  
  434.00  3.6352E-003  
  434.50  3.7653E-003  
  435.00  3.9237E-003  
  435.50  4.0230E-003  
  436.00  4.1916E-003  
  436.50  4.3566E-003  
  437.00  4.5988E-003  
  437.50  4.8341E-003  
  438.00  5.0209E-003  
  438.50  5.2167E-003  
  439.00  5.4111E-003  
  439.50  5.6531E-003  
  440.00  5.8735E-003  
  440.50  6.1324E-003  
  441.00  6.3927E-003  
  441.50  6.7229E-003  
  442.00  7.0608E-003  
  442.50  7.3737E-003  
  443.00  7.6530E-003  
  443.50  7.9314E-003  
  444.00  8.1990E-003  
  444.50  8.4897E-003  
  445.00  8.7988E-003  
  445.50  9.1904E-003  
  446.00  9.5421E-003  
  446.50  9.7890E-003  
  447.00  9.9490E-003  
  447.50  1.0060E-002  
  448.00  1.0230E-002  
  448.50  1.0403E-002  
  449.00  1.0577E-002  
  449.50  1.0729E-002  
  450.00  1.0835E-002  
  450.50  1.0858E-002  
  451.00  1.0820E-002  
  451.50  1.0697E-002  
  452.00  1.0558E-002  
  452.50  1.0400E-002  
  453.00  1.0199E-002  
  453.50  1.0002E-002  
  454.00  9.8440E-003  
  454.50  9.6487E-003  
  455.00  9.4583E-003  
  455.50  9.2429E-003  
  456.00  8.9992E-003  
  456.50  8.8059E-003  
  457.00  8.5435E-003  
  457.50  8.2795E-003  
  458.00  8.0275E-003  
  458.50  7.8131E-003  
  459.00  7.5884E-003  
  459.50  7.3878E-003  
  460.00  7.2011E-003  
  460.50  7.0538E-003  
  461.00  6.9422E-003  
  461.50  6.7820E-003  
  462.00  6.6078E-003  
  462.50  6.4475E-003  
  463.00  6.3123E-003  
  463.50  6.2394E-003  
  464.00  6.1463E-003  
  464.50  6.0607E-003  
  465.00  5.9840E-003  
  465.50  5.8992E-003  
  466.00  5.8295E-003  
  466.50  5.7187E-003  
  467.00  5.5488E-003  
  467.50  5.3756E-003  
  468.00  5.2384E-003  
  468.50  5.1498E-003  
  469.00  5.1019E-003  
  469.50  5.0725E-003  
  470.00  5.0137E-003  
  470.50  4.9626E-003  
  471.00  4.8901E-003  
  471.50  4.8399E-003  
  472.00  4.7487E-003  
  472.50  4.6301E-003  
  473.00  4.5344E-003  
  473.50  4.4513E-003  
  474.00  4.4109E-003  
  474.50  4.4097E-003  
  475.00  4.3747E-003  
  475.50  4.3449E-003  
  476.00  4.2947E-003  
  476.50  4.2598E-003  
  477.00  4.2851E-003  
  477.50  4.3089E-003  
  478.00  4.3212E-003  
  478.50  4.2794E-003  
  479.00  4.2272E-003  
  479.50  4.2143E-003  
  480.00  4.1748E-003  
  480.50  4.1631E-003  
  481.00  4.1921E-003  
  481.50  4.2180E-003  
  482.00  4.2637E-003  
  482.50  4.3115E-003  
  483.00  4.3226E-003  
  483.50  4.3691E-003  
  484.00  4.4066E-003  
  484.50  4.4586E-003  
  485.00  4.5413E-003  
  485.50  4.6253E-003  
  486.00  4.6977E-003  
  486.50  4.7815E-003  
  487.00  4.8382E-003  
  487.50  4.8917E-003  
  488.00  4.9538E-003  
  488.50  5.0186E-003  
  489.00  5.1049E-003  
  489.50  5.1898E-003  
  490.00  5.2645E-003  
  490.50  5.3667E-003  
  491.00  5.4942E-003  
  491.50  5.6208E-003  
  492.00  5.7315E-003  
  492.50  5.8186E-003  
  493.00  5.8937E-003  
  493.50  5.9822E-003  
  494.00  6.0865E-003  
  494.50  6.2062E-003  
  495.00  6.3384E-003  
  495.50  6.4778E-003  
  496.00  6.6308E-003  
  496.50  6.7887E-003  
  497.00  6.9504E-003  
  497.50  7.0762E-003  
  498.00  7.2136E-003  
  498.50  7.3351E-003  
  499.00  7.4880E-003  
  499.50  7.6472E-003  
  500.00  7.7980E-003  
  500.50  7.9326E-003  
  501.00  8.1095E-003  
  501.50  8.2684E-003  
  502.00  8.4332E-003  
  502.50  8.5655E-003  
  503.00  8.7261E-003  
  503.50  8.8683E-003  
  504.00  9.0579E-003  
  504.50  9.2284E-003  
  505.00  9.4024E-003  
  505.50  9.5818E-003  
  506.00  9.7248E-003  
  506.50  9.8711E-003  
  507.00  1.0015E-002  
  507.50  1.0154E-002  
  508.00  1.0245E-002  
  508.50  1.0354E-002  
  509.00  1.0486E-002  
  509.50  1.0663E-002  
  510.00  1.0869E-002  
  510.50  1.1032E-002  
  511.00  1.1206E-002  
  511.50  1.1373E-002  
  512.00  1.1558E-002  
  512.50  1.1744E-002  
  513.00  1.1898E-002  
  513.50  1.2018E-002  
  514.00  1.2112E-002  
  514.50  1.2214E-002  
  515.00  1.2365E-002  
  515.50  1.2516E-002  
  516.00  1.2685E-002  
  516.50  1.2833E-002  
  517.00  1.2997E-002  
  517.50  1.3157E-002  
  518.00  1.3297E-002  
  518.50  1.3430E-002  
  519.00  1.3527E-002  
  519.50  1.3633E-002  
  520.00  1.3747E-002  
  520.50  1.3895E-002  
  521.00  1.4038E-002  
  521.50  1.4214E-002  
  522.00  1.4366E-002  
  522.50  1.4448E-002  
  523.00  1.4530E-002  
  523.50  1.4633E-002  
  524.00  1.4779E-002  
  524.50  1.4979E-002  
  525.00  1.5148E-002  
  525.50  1.5295E-002  
  526.00  1.5421E-002  
  526.50  1.5537E-002  
  527.00  1.5652E-002  
  527.50  1.5802E-002  
  528.00  1.5909E-002  
  528.50  1.6018E-002  
  529.00  1.6131E-002  
  529.50  1.6231E-002  
  530.00  1.6327E-002  
  530.50  1.6400E-002  
  531.00  1.6485E-002  
  531.50  1.6623E-002  
  532.00  1.6759E-002  
  532.50  1.6887E-002  
  533.00  1.7010E-002  
  533.50  1.7155E-002  
  534.00  1.7296E-002  
  534.50  1.7386E-002  
  535.00  1.7470E-002  
  535.50  1.7602E-002  
  536.00  1.7765E-002  
  536.50  1.7944E-002  
  537.00  1.8077E-002  
  537.50  1.8192E-002  
  538.00  1.8299E-002  
  538.50  1.8378E-002  
  539.00  1.8518E-002  
  539.50  1.8654E-002  
  540.00  1.8793E-002  
  540.50  1.8977E-002  
  541.00  1.9144E-002  
  541.50  1.9318E-002  
  542.00  1.9465E-002  
  542.50  1.9548E-002  
  543.00  1.9625E-002  
  543.50  1.9715E-002  
  544.00  1.9822E-002  
  544.50  1.9940E-002  
  545.00  2.0037E-002  
  545.50  2.0150E-002  
  546.00  2.0344E-002  
  546.50  2.0540E-002  
  547.00  2.0702E-002  
  547.50  2.0804E-002  
  548.00  2.0922E-002  
  548.50  2.1031E-002  
  549.00  2.1153E-002  
  549.50  2.1232E-002  
  550.00  2.1369E-002  
  550.50  2.1561E-002  
  551.00  2.1766E-002  
  551.50  2.1969E-002  
  552.00  2.2110E-002  
  552.50  2.2259E-002  
  553.00  2.2367E-002  
  553.50  2.2489E-002  
  554.00  2.2650E-002  
  554.50  2.2811E-002  
  555.00  2.2946E-002  
  555.50  2.3044E-002  
  556.00  2.3186E-002  
  556.50  2.3375E-002  
  557.00  2.3576E-002  
  557.50  2.3720E-002  
  558.00  2.3890E-002  
  558.50  2.4083E-002  
  559.00  2.4293E-002  
  559.50  2.4508E-002  
  560.00  2.4667E-002  
  560.50  2.4810E-002  
  561.00  2.4947E-002  
  561.50  2.5072E-002  
  562.00  2.5183E-002  
  562.50  2.5306E-002  
  563.00  2.5484E-002  
  563.50  2.5703E-002  
  564.00  2.5923E-002  
  564.50  2.6116E-002  
  565.00  2.6254E-002  
  565.50  2.6411E-002  
  566.00  2.6575E-002  
  566.50  2.6719E-002  
  567.00  2.6857E-002  
  567.50  2.6966E-002  
  568.00  2.7153E-002  
  568.50  2.7354E-002  
  569.00  2.7538E-002  
  569.50  2.7670E-002  
  570.00  2.7811E-002  
  570.50  2.7988E-002  
  571.00  2.8182E-002  
  571.50  2.8360E-002  
  572.00  2.8486E-002  
  572.50  2.8615E-002  
  573.00  2.8798E-002  
  573.50  2.9026E-002  
  574.00  2.9224E-002  
  574.50  2.9414E-002  
  575.00  2.9568E-002  
  575.50  2.9731E-002  
  576.00  2.9918E-002  
  576.50  3.0112E-002  
  577.00  3.0347E-002  
  577.50  3.0573E-002  
  578.00  3.0744E-002  
  578.50  3.0916E-002  
  579.00  3.1081E-002  
  579.50  3.1303E-002  
  580.00  3.1465E-002  
  580.50  3.1633E-002  
  581.00  3.1726E-002  
  581.50  3.1877E-002  
  582.00  3.2061E-002  
  582.50  3.2257E-002  
  583.00  3.2500E-002  
  583.50  3.2684E-002  
  584.00  3.2824E-002  
  584.50  3.2924E-002  
  585.00  3.3024E-002  
  585.50  3.3228E-002  
  586.00  3.3436E-002  
  586.50  3.3643E-002  
  587.00  3.3810E-002  
  587.50  3.4008E-002  
  588.00  3.4151E-002  
  588.50  3.4292E-002  
  589.00  3.4312E-002  
  589.50  3.4345E-002  
  590.00  3.4475E-002  
  590.50  3.4635E-002  
  591.00  3.4865E-002  
  591.50  3.5027E-002  
  592.00  3.5157E-002  
  592.50  3.5267E-002  
  593.00  3.5415E-002  
  593.50  3.5496E-002  
  594.00  3.5629E-002  
  594.50  3.5704E-002  
  595.00  3.5868E-002  
  595.50  3.5967E-002  
  596.00  3.6027E-002  
  596.50  3.6096E-002  
  597.00  3.6160E-002  
  597.50  3.6196E-002  
  598.00  3.6171E-002  
  598.50  3.6259E-002  
  599.00  3.6351E-002  
  599.50  3.6513E-002  
  600.00  3.6575E-002  
  600.50  3.6609E-002  
  601.00  3.6666E-002  
  601.50  3.6677E-002  
  602.00  3.6751E-002  
  602.50  3.6825E-002  
  603.00  3.6869E-002  
  603.50  3.6898E-002  
  604.00  3.6941E-002  
  604.50  3.6922E-002  
  605.00  3.6848E-002  
  605.50  3.6692E-002  
  606.00  3.6674E-002  
  606.50  3.6751E-002  
  607.00  3.6787E-002  
  607.50  3.6661E-002  
  608.00  3.6594E-002  
  608.50  3.6528E-002  
  609.00  3.6573E-002  
  609.50  3.6542E-002  
  610.00  3.6457E-002  
  610.50  3.6392E-002  
  611.00  3.6324E-002  
  611.50  3.6356E-002  
  612.00  3.6414E-002  
  612.50  3.6420E-002  
  613.00  3.6311E-002  
  613.50  3.6187E-002  
  614.00  3.6099E-002  
  614.50  3.6001E-002  
  615.00  3.5853E-002  
  615.50  3.5727E-002  
  616.00  3.5653E-002  
  616.50  3.5591E-002  
  617.00  3.5449E-002  
  617.50  3.5284E-002  
  618.00  3.5107E-002  
  618.50  3.4985E-002  
  619.00  3.4836E-002  
  619.50  3.4649E-002  
  620.00  3.4407E-002  
  620.50  3.4169E-002  
  621.00  3.4118E-002  
  621.50  3.4048E-002  
  622.00  3.4031E-002  
  622.50  3.3911E-002  
  623.00  3.3821E-002  
  623.50  3.3732E-002  
  624.00  3.3549E-002  
  624.50  3.3274E-002  
  625.00  3.2932E-002  
  625.50  3.2773E-002  
  626.00  3.2590E-002  
  626.50  3.2465E-002  
  627.00  3.2341E-002  
  627.50  3.2210E-002  
  628.00  3.2038E-002  
  628.50  3.1756E-002  
  629.00  3.1570E-002  
  629.50  3.1346E-002  
  630.00  3.1102E-002  
  630.50  3.0840E-002  
  631.00  3.0645E-002  
  631.50  3.0396E-002  
  632.00  3.0106E-002  
  632.50  2.9875E-002  
  633.00  2.9672E-002  
  633.50  2.9469E-002  
  634.00  2.9269E-002  
  634.50  2.9114E-002  
  635.00  2.8912E-002  
  635.50  2.8625E-002  
  636.00  2.8378E-002  
  636.50  2.8201E-002  
  637.00  2.8036E-002  
  637.50  2.7776E-002  
  638.00  2.7408E-002  
  638.50  2.7129E-002  
  639.00  2.6899E-002  
  639.50  2.6765E-002  
  640.00  2.6544E-002  
  640.50  2.6293E-002  
  641.00  2.6016E-002  
  641.50  2.5774E-002  
  642.00  2.5509E-002  
  642.50  2.5326E-002  
  643.00  2.5050E-002  
  643.50  2.4784E-002  
  644.00  2.4503E-002  
  644.50  2.4286E-002  
  645.00  2.4049E-002  
  645.50  2.3821E-002  
  646.00  2.3595E-002  
  646.50  2.3402E-002  
  647.00  2.3173E-002  
  647.50  2.2916E-002  
  648.00  2.2669E-002  
  648.50  2.2370E-002  
  649.00  2.2036E-002  
  649.50  2.1692E-002  
  650.00  2.1430E-002  
  650.50  2.1262E-002  
  651.00  2.1116E-002  
  651.50  2.0945E-002  
  652.00  2.0676E-002  
  652.50  2.0454E-002  
  653.00  2.0202E-002  
  653.50  1.9986E-002  
  654.00  1.9722E-002  
  654.50  1.9489E-002  
  655.00  1.9271E-002  
  655.50  1.9058E-002  
  656.00  1.8866E-002  
  656.50  1.8649E-002  
  657.00  1.8416E-002  
  657.50  1.8162E-002  
  658.00  1.7934E-002  
  658.50  1.7744E-002  
  659.00  1.7566E-002  
  659.50  1.7435E-002  
  660.00  1.7242E-002  
  660.50  1.6966E-002  
  661.00  1.6688E-002  
  661.50  1.6428E-002  
  662.00  1.6262E-002  
  662.50  1.6029E-002  
  663.00  1.5790E-002  
  663.50  1.5584E-002  
  664.00  1.5415E-002  
  664.50  1.5233E-002  
  665.00  1.5060E-002  
  665.50  1.4909E-002  
  666.00  1.4712E-002  
  666.50  1.4470E-002  
  667.00  1.4294E-002  
  667.50  1.4186E-002  
  668.00  1.4125E-002  
  668.50  1.3949E-002  
  669.00  1.3742E-002  
  669.50  1.3390E-002  
  670.00  1.3065E-002  
  670.50  1.2839E-002  
  671.00  1.2664E-002  
  671.50  1.2501E-002  
  672.00  1.2369E-002  
  672.50  1.2263E-002  
  673.00  1.2147E-002  
  673.50  1.1962E-002  
  674.00  1.1806E-002  
  674.50  1.1677E-002  
  675.00  1.1567E-002  
  675.50  1.1383E-002  
  676.00  1.1225E-002  
  676.50  1.1037E-002  
  677.00  1.0830E-002  
  677.50  1.0605E-002  
  678.00  1.0390E-002  
  678.50  1.0297E-002  
  679.00  1.0197E-002  
  679.50  1.0125E-002  
  680.00  9.9356E-003  
