
# From lspdd.org
# 
# Name: DEL Ledtech PAR20 Domestique
# Indice spectral Valeur 
# MSI 0.71 
# SLI 0.75 
# IPI 0.71 
# Pourcentage de bleu 41.8 
# Caractéristique Valeur 
# CCT calculée (K) 5832 
# CCT du fabricant (K) 5896 
# Tension (V) 120 
# Puissance (W) 8.0 
# Efficacité lumineuse (Lum/W) ND 
#
# Image: '/app/system/img_2s/2470/medium_image2.jpg?1413485797'
# Image: '/app/system/img_1s/2470/medium_image1.JPG?1413485797'
# 

  273.00  0.0000E+000  
  273.50  0.0000E+000  
  274.00  0.0000E+000  
  274.50  0.0000E+000  
  275.00  0.0000E+000  
  275.50  0.0000E+000  
  276.00  0.0000E+000  
  276.50  0.0000E+000  
  277.00  0.0000E+000  
  277.50  0.0000E+000  
  278.00  0.0000E+000  
  278.50  0.0000E+000  
  279.00  0.0000E+000  
  279.50  0.0000E+000  
  280.00  0.0000E+000  
  280.50  0.0000E+000  
  281.00  0.0000E+000  
  281.50  0.0000E+000  
  282.00  0.0000E+000  
  282.50  0.0000E+000  
  283.00  0.0000E+000  
  283.50  0.0000E+000  
  284.00  0.0000E+000  
  284.50  0.0000E+000  
  285.00  0.0000E+000  
  285.50  0.0000E+000  
  286.00  0.0000E+000  
  286.50  0.0000E+000  
  287.00  0.0000E+000  
  287.50  0.0000E+000  
  288.00  0.0000E+000  
  288.50  0.0000E+000  
  289.00  0.0000E+000  
  289.50  0.0000E+000  
  290.00  0.0000E+000  
  290.50  0.0000E+000  
  291.00  0.0000E+000  
  291.50  0.0000E+000  
  292.00  0.0000E+000  
  292.50  0.0000E+000  
  293.00  0.0000E+000  
  293.50  0.0000E+000  
  294.00  0.0000E+000  
  294.50  0.0000E+000  
  295.00  0.0000E+000  
  295.50  0.0000E+000  
  296.00  0.0000E+000  
  296.50  0.0000E+000  
  297.00  0.0000E+000  
  297.50  0.0000E+000  
  298.00  0.0000E+000  
  298.50  0.0000E+000  
  299.00  0.0000E+000  
  299.50  0.0000E+000  
  300.00  1.1163E-004  
  300.50  2.9138E-004  
  301.00  2.7713E-004  
  301.50  2.2436E-004  
  302.00  1.9126E-004  
  302.50  2.1112E-004  
  303.00  1.9428E-004  
  303.50  2.4037E-004  
  304.00  3.0266E-004  
  304.50  2.6483E-004  
  305.00  2.3308E-004  
  305.50  1.9980E-004  
  306.00  1.4844E-004  
  306.50  1.7489E-004  
  307.00  2.0833E-004  
  307.50  2.4847E-004  
  308.00  2.8735E-004  
  308.50  3.0160E-004  
  309.00  2.8319E-004  
  309.50  2.7302E-004  
  310.00  2.7394E-004  
  310.50  2.8681E-004  
  311.00  3.0274E-004  
  311.50  2.2844E-004  
  312.00  1.4280E-004  
  312.50  1.0061E-004  
  313.00  1.0464E-004  
  313.50  1.4628E-004  
  314.00  1.6914E-004  
  314.50  1.6727E-004  
  315.00  1.5223E-004  
  315.50  9.7983E-005  
  316.00  9.3332E-005  
  316.50  1.0655E-004  
  317.00  1.3038E-004  
  317.50  2.1137E-004  
  318.00  2.6113E-004  
  318.50  2.5720E-004  
  319.00  2.9764E-004  
  319.50  2.9401E-004  
  320.00  3.3222E-004  
  320.50  4.0281E-004  
  321.00  3.7825E-004  
  321.50  3.8953E-004  
  322.00  2.8048E-004  
  322.50  2.0290E-004  
  323.00  1.9030E-004  
  323.50  1.7166E-004  
  324.00  2.6224E-004  
  324.50  3.4761E-004  
  325.00  3.7530E-004  
  325.50  3.8476E-004  
  326.00  3.1220E-004  
  326.50  2.4050E-004  
  327.00  2.1849E-004  
  327.50  2.4324E-004  
  328.00  3.1176E-004  
  328.50  3.7481E-004  
  329.00  3.9314E-004  
  329.50  3.7595E-004  
  330.00  3.1120E-004  
  330.50  2.9815E-004  
  331.00  3.2859E-004  
  331.50  3.5092E-004  
  332.00  3.9725E-004  
  332.50  4.0411E-004  
  333.00  3.6468E-004  
  333.50  3.5579E-004  
  334.00  3.4584E-004  
  334.50  3.5465E-004  
  335.00  3.7034E-004  
  335.50  3.7183E-004  
  336.00  3.3400E-004  
  336.50  2.6610E-004  
  337.00  2.3301E-004  
  337.50  2.6127E-004  
  338.00  3.1178E-004  
  338.50  3.3233E-004  
  339.00  3.4823E-004  
  339.50  3.3376E-004  
  340.00  3.6314E-004  
  340.50  4.0547E-004  
  341.00  4.0542E-004  
  341.50  3.6428E-004  
  342.00  3.3417E-004  
  342.50  3.4793E-004  
  343.00  3.8010E-004  
  343.50  4.2346E-004  
  344.00  3.7694E-004  
  344.50  3.6015E-004  
  345.00  3.4387E-004  
  345.50  3.5322E-004  
  346.00  4.0418E-004  
  346.50  3.9370E-004  
  347.00  4.0579E-004  
  347.50  3.9118E-004  
  348.00  3.9554E-004  
  348.50  4.1547E-004  
  349.00  4.1826E-004  
  349.50  3.9837E-004  
  350.00  3.3805E-004  
  350.50  2.3578E-004  
  351.00  1.7717E-004  
  351.50  1.8765E-004  
  352.00  2.4301E-004  
  352.50  3.3419E-004  
  353.00  4.1118E-004  
  353.50  4.7040E-004  
  354.00  4.8163E-004  
  354.50  4.3028E-004  
  355.00  3.5008E-004  
  355.50  3.0823E-004  
  356.00  3.3561E-004  
  356.50  3.3258E-004  
  357.00  3.9531E-004  
  357.50  4.2062E-004  
  358.00  4.2740E-004  
  358.50  4.9837E-004  
  359.00  4.7299E-004  
  359.50  4.2969E-004  
  360.00  4.2775E-004  
  360.50  4.1470E-004  
  361.00  4.2045E-004  
  361.50  4.3148E-004  
  362.00  3.9934E-004  
  362.50  3.9444E-004  
  363.00  4.4313E-004  
  363.50  5.4333E-004  
  364.00  6.2657E-004  
  364.50  6.3019E-004  
  365.00  5.8718E-004  
  365.50  5.2151E-004  
  366.00  4.8725E-004  
  366.50  4.8140E-004  
  367.00  4.7225E-004  
  367.50  4.5134E-004  
  368.00  4.6030E-004  
  368.50  4.9899E-004  
  369.00  5.6145E-004  
  369.50  5.9007E-004  
  370.00  5.8051E-004  
  370.50  5.9293E-004  
  371.00  5.8338E-004  
  371.50  5.9254E-004  
  372.00  5.9964E-004  
  372.50  5.4655E-004  
  373.00  5.1704E-004  
  373.50  5.1335E-004  
  374.00  5.3963E-004  
  374.50  5.8210E-004  
  375.00  6.1131E-004  
  375.50  6.1647E-004  
  376.00  6.2198E-004  
  376.50  5.8445E-004  
  377.00  5.9654E-004  
  377.50  5.6596E-004  
  378.00  5.7453E-004  
  378.50  5.9833E-004  
  379.00  6.2208E-004  
  379.50  6.4877E-004  
  380.00  6.8134E-004  
  380.50  6.9496E-004  
  381.00  6.8031E-004  
  381.50  6.9460E-004  
  382.00  6.9712E-004  
  382.50  7.2756E-004  
  383.00  7.3657E-004  
  383.50  7.0461E-004  
  384.00  7.0675E-004  
  384.50  7.2566E-004  
  385.00  7.4124E-004  
  385.50  7.4768E-004  
  386.00  7.6557E-004  
  386.50  7.9340E-004  
  387.00  8.3654E-004  
  387.50  8.8567E-004  
  388.00  8.6954E-004  
  388.50  8.7848E-004  
  389.00  8.8634E-004  
  389.50  8.9854E-004  
  390.00  9.4985E-004  
  390.50  1.0262E-003  
  391.00  1.0826E-003  
  391.50  1.1419E-003  
  392.00  1.1704E-003  
  392.50  1.1407E-003  
  393.00  1.1633E-003  
  393.50  1.1655E-003  
  394.00  1.1545E-003  
  394.50  1.1845E-003  
  395.00  1.1958E-003  
  395.50  1.2306E-003  
  396.00  1.2576E-003  
  396.50  1.2720E-003  
  397.00  1.2766E-003  
  397.50  1.3154E-003  
  398.00  1.3730E-003  
  398.50  1.4759E-003  
  399.00  1.6279E-003  
  399.50  1.7792E-003  
  400.00  1.8743E-003  
  400.50  1.9224E-003  
  401.00  1.9837E-003  
  401.50  2.0838E-003  
  402.00  2.1990E-003  
  402.50  2.3205E-003  
  403.00  2.3876E-003  
  403.50  2.4938E-003  
  404.00  2.6502E-003  
  404.50  2.8153E-003  
  405.00  3.0423E-003  
  405.50  3.2938E-003  
  406.00  3.5433E-003  
  406.50  3.8152E-003  
  407.00  4.1143E-003  
  407.50  4.4292E-003  
  408.00  4.7599E-003  
  408.50  5.1008E-003  
  409.00  5.4499E-003  
  409.50  5.8812E-003  
  410.00  6.4055E-003  
  410.50  6.9550E-003  
  411.00  7.5340E-003  
  411.50  8.1305E-003  
  412.00  8.7686E-003  
  412.50  9.4359E-003  
  413.00  1.0178E-002  
  413.50  1.0967E-002  
  414.00  1.1845E-002  
  414.50  1.2712E-002  
  415.00  1.3704E-002  
  415.50  1.4850E-002  
  416.00  1.6219E-002  
  416.50  1.7695E-002  
  417.00  1.9122E-002  
  417.50  2.0574E-002  
  418.00  2.2108E-002  
  418.50  2.3851E-002  
  419.00  2.5684E-002  
  419.50  2.7652E-002  
  420.00  2.9792E-002  
  420.50  3.2021E-002  
  421.00  3.4380E-002  
  421.50  3.6802E-002  
  422.00  3.9440E-002  
  422.50  4.2304E-002  
  423.00  4.5323E-002  
  423.50  4.8308E-002  
  424.00  5.1388E-002  
  424.50  5.4488E-002  
  425.00  5.7739E-002  
  425.50  6.1045E-002  
  426.00  6.4583E-002  
  426.50  6.8121E-002  
  427.00  7.1854E-002  
  427.50  7.5791E-002  
  428.00  7.9832E-002  
  428.50  8.3791E-002  
  429.00  8.7736E-002  
  429.50  9.1852E-002  
  430.00  9.6125E-002  
  430.50  1.0048E-001  
  431.00  1.0455E-001  
  431.50  1.0843E-001  
  432.00  1.1269E-001  
  432.50  1.1737E-001  
  433.00  1.2210E-001  
  433.50  1.2660E-001  
  434.00  1.3095E-001  
  434.50  1.3542E-001  
  435.00  1.4034E-001  
  435.50  1.4534E-001  
  436.00  1.5036E-001  
  436.50  1.5539E-001  
  437.00  1.6069E-001  
  437.50  1.6592E-001  
  438.00  1.7083E-001  
  438.50  1.7492E-001  
  439.00  1.7882E-001  
  439.50  1.8301E-001  
  440.00  1.8709E-001  
  440.50  1.9116E-001  
  441.00  1.9420E-001  
  441.50  1.9664E-001  
  442.00  1.9876E-001  
  442.50  2.0004E-001  
  443.00  2.0113E-001  
  443.50  2.0152E-001  
  444.00  2.0146E-001  
  444.50  2.0105E-001  
  445.00  2.0004E-001  
  445.50  1.9832E-001  
  446.00  1.9600E-001  
  446.50  1.9270E-001  
  447.00  1.8882E-001  
  447.50  1.8468E-001  
  448.00  1.8000E-001  
  448.50  1.7491E-001  
  449.00  1.6931E-001  
  449.50  1.6341E-001  
  450.00  1.5759E-001  
  450.50  1.5166E-001  
  451.00  1.4579E-001  
  451.50  1.3974E-001  
  452.00  1.3370E-001  
  452.50  1.2779E-001  
  453.00  1.2189E-001  
  453.50  1.1627E-001  
  454.00  1.1085E-001  
  454.50  1.0578E-001  
  455.00  1.0107E-001  
  455.50  9.6451E-002  
  456.00  9.2013E-002  
  456.50  8.7932E-002  
  457.00  8.4232E-002  
  457.50  8.0755E-002  
  458.00  7.7374E-002  
  458.50  7.4031E-002  
  459.00  7.0917E-002  
  459.50  6.8027E-002  
  460.00  6.5353E-002  
  460.50  6.2930E-002  
  461.00  6.0700E-002  
  461.50  5.8490E-002  
  462.00  5.6415E-002  
  462.50  5.4394E-002  
  463.00  5.2523E-002  
  463.50  5.0704E-002  
  464.00  4.8921E-002  
  464.50  4.7234E-002  
  465.00  4.5634E-002  
  465.50  4.4217E-002  
  466.00  4.2740E-002  
  466.50  4.1276E-002  
  467.00  3.9840E-002  
  467.50  3.8561E-002  
  468.00  3.7318E-002  
  468.50  3.6154E-002  
  469.00  3.4786E-002  
  469.50  3.3501E-002  
  470.00  3.2422E-002  
  470.50  3.1503E-002  
  471.00  3.0795E-002  
  471.50  2.9952E-002  
  472.00  2.9008E-002  
  472.50  2.8168E-002  
  473.00  2.7466E-002  
  473.50  2.6933E-002  
  474.00  2.6425E-002  
  474.50  2.5831E-002  
  475.00  2.5242E-002  
  475.50  2.4745E-002  
  476.00  2.4298E-002  
  476.50  2.3878E-002  
  477.00  2.3422E-002  
  477.50  2.3030E-002  
  478.00  2.2689E-002  
  478.50  2.2448E-002  
  479.00  2.2216E-002  
  479.50  2.1978E-002  
  480.00  2.1755E-002  
  480.50  2.1511E-002  
  481.00  2.1309E-002  
  481.50  2.1072E-002  
  482.00  2.0928E-002  
  482.50  2.0792E-002  
  483.00  2.0650E-002  
  483.50  2.0569E-002  
  484.00  2.0522E-002  
  484.50  2.0545E-002  
  485.00  2.0603E-002  
  485.50  2.0634E-002  
  486.00  2.0683E-002  
  486.50  2.0755E-002  
  487.00  2.0909E-002  
  487.50  2.1107E-002  
  488.00  2.1327E-002  
  488.50  2.1529E-002  
  489.00  2.1793E-002  
  489.50  2.2097E-002  
  490.00  2.2505E-002  
  490.50  2.2929E-002  
  491.00  2.3395E-002  
  491.50  2.3842E-002  
  492.00  2.4333E-002  
  492.50  2.4835E-002  
  493.00  2.5512E-002  
  493.50  2.6207E-002  
  494.00  2.6910E-002  
  494.50  2.7561E-002  
  495.00  2.8229E-002  
  495.50  2.8990E-002  
  496.00  2.9750E-002  
  496.50  3.0572E-002  
  497.00  3.1379E-002  
  497.50  3.2276E-002  
  498.00  3.3214E-002  
  498.50  3.4144E-002  
  499.00  3.5033E-002  
  499.50  3.5943E-002  
  500.00  3.6911E-002  
  500.50  3.7950E-002  
  501.00  3.9024E-002  
  501.50  4.0103E-002  
  502.00  4.1186E-002  
  502.50  4.2314E-002  
  503.00  4.3468E-002  
  503.50  4.4622E-002  
  504.00  4.5871E-002  
  504.50  4.7145E-002  
  505.00  4.8401E-002  
  505.50  4.9641E-002  
  506.00  5.0814E-002  
  506.50  5.1986E-002  
  507.00  5.3217E-002  
  507.50  5.4494E-002  
  508.00  5.5793E-002  
  508.50  5.6961E-002  
  509.00  5.8139E-002  
  509.50  5.9353E-002  
  510.00  6.0688E-002  
  510.50  6.2008E-002  
  511.00  6.3236E-002  
  511.50  6.4396E-002  
  512.00  6.5573E-002  
  512.50  6.6801E-002  
  513.00  6.8068E-002  
  513.50  6.9373E-002  
  514.00  7.0673E-002  
  514.50  7.1903E-002  
  515.00  7.3006E-002  
  515.50  7.4120E-002  
  516.00  7.5272E-002  
  516.50  7.6442E-002  
  517.00  7.7651E-002  
  517.50  7.8759E-002  
  518.00  7.9823E-002  
  518.50  8.0888E-002  
  519.00  8.1866E-002  
  519.50  8.2802E-002  
  520.00  8.3722E-002  
  520.50  8.4698E-002  
  521.00  8.5747E-002  
  521.50  8.6825E-002  
  522.00  8.7770E-002  
  522.50  8.8641E-002  
  523.00  8.9488E-002  
  523.50  9.0402E-002  
  524.00  9.1318E-002  
  524.50  9.2141E-002  
  525.00  9.2872E-002  
  525.50  9.3580E-002  
  526.00  9.4393E-002  
  526.50  9.5309E-002  
  527.00  9.6178E-002  
  527.50  9.6892E-002  
  528.00  9.7544E-002  
  528.50  9.8180E-002  
  529.00  9.8840E-002  
  529.50  9.9369E-002  
  530.00  9.9888E-002  
  530.50  1.0046E-001  
  531.00  1.0115E-001  
  531.50  1.0170E-001  
  532.00  1.0223E-001  
  532.50  1.0272E-001  
  533.00  1.0324E-001  
  533.50  1.0385E-001  
  534.00  1.0431E-001  
  534.50  1.0487E-001  
  535.00  1.0536E-001  
  535.50  1.0585E-001  
  536.00  1.0630E-001  
  536.50  1.0669E-001  
  537.00  1.0695E-001  
  537.50  1.0725E-001  
  538.00  1.0757E-001  
  538.50  1.0802E-001  
  539.00  1.0845E-001  
  539.50  1.0873E-001  
  540.00  1.0904E-001  
  540.50  1.0933E-001  
  541.00  1.0953E-001  
  541.50  1.0981E-001  
  542.00  1.1003E-001  
  542.50  1.1036E-001  
  543.00  1.1064E-001  
  543.50  1.1080E-001  
  544.00  1.1109E-001  
  544.50  1.1142E-001  
  545.00  1.1177E-001  
  545.50  1.1203E-001  
  546.00  1.1215E-001  
  546.50  1.1236E-001  
  547.00  1.1255E-001  
  547.50  1.1274E-001  
  548.00  1.1286E-001  
  548.50  1.1295E-001  
  549.00  1.1313E-001  
  549.50  1.1328E-001  
  550.00  1.1352E-001  
  550.50  1.1377E-001  
  551.00  1.1399E-001  
  551.50  1.1411E-001  
  552.00  1.1416E-001  
  552.50  1.1427E-001  
  553.00  1.1439E-001  
  553.50  1.1456E-001  
  554.00  1.1467E-001  
  554.50  1.1481E-001  
  555.00  1.1487E-001  
  555.50  1.1495E-001  
  556.00  1.1507E-001  
  556.50  1.1519E-001  
  557.00  1.1527E-001  
  557.50  1.1529E-001  
  558.00  1.1526E-001  
  558.50  1.1530E-001  
  559.00  1.1532E-001  
  559.50  1.1536E-001  
  560.00  1.1539E-001  
  560.50  1.1537E-001  
  561.00  1.1536E-001  
  561.50  1.1531E-001  
  562.00  1.1526E-001  
  562.50  1.1522E-001  
  563.00  1.1506E-001  
  563.50  1.1489E-001  
  564.00  1.1465E-001  
  564.50  1.1452E-001  
  565.00  1.1436E-001  
  565.50  1.1418E-001  
  566.00  1.1399E-001  
  566.50  1.1393E-001  
  567.00  1.1391E-001  
  567.50  1.1393E-001  
  568.00  1.1392E-001  
  568.50  1.1381E-001  
  569.00  1.1369E-001  
  569.50  1.1346E-001  
  570.00  1.1311E-001  
  570.50  1.1272E-001  
  571.00  1.1239E-001  
  571.50  1.1217E-001  
  572.00  1.1207E-001  
  572.50  1.1193E-001  
  573.00  1.1165E-001  
  573.50  1.1134E-001  
  574.00  1.1116E-001  
  574.50  1.1096E-001  
  575.00  1.1084E-001  
  575.50  1.1056E-001  
  576.00  1.1031E-001  
  576.50  1.1005E-001  
  577.00  1.0979E-001  
  577.50  1.0962E-001  
  578.00  1.0935E-001  
  578.50  1.0894E-001  
  579.00  1.0853E-001  
  579.50  1.0815E-001  
  580.00  1.0787E-001  
  580.50  1.0755E-001  
  581.00  1.0727E-001  
  581.50  1.0703E-001  
  582.00  1.0674E-001  
  582.50  1.0634E-001  
  583.00  1.0593E-001  
  583.50  1.0558E-001  
  584.00  1.0524E-001  
  584.50  1.0475E-001  
  585.00  1.0412E-001  
  585.50  1.0361E-001  
  586.00  1.0337E-001  
  586.50  1.0311E-001  
  587.00  1.0273E-001  
  587.50  1.0206E-001  
  588.00  1.0146E-001  
  588.50  1.0100E-001  
  589.00  1.0065E-001  
  589.50  1.0027E-001  
  590.00  9.9780E-002  
  590.50  9.9213E-002  
  591.00  9.8758E-002  
  591.50  9.8440E-002  
  592.00  9.8072E-002  
  592.50  9.7648E-002  
  593.00  9.7183E-002  
  593.50  9.6635E-002  
  594.00  9.6141E-002  
  594.50  9.5559E-002  
  595.00  9.4958E-002  
  595.50  9.4282E-002  
  596.00  9.3614E-002  
  596.50  9.3116E-002  
  597.00  9.2717E-002  
  597.50  9.2273E-002  
  598.00  9.1759E-002  
  598.50  9.1179E-002  
  599.00  9.0680E-002  
  599.50  9.0215E-002  
  600.00  8.9698E-002  
  600.50  8.9071E-002  
  601.00  8.8410E-002  
  601.50  8.7820E-002  
  602.00  8.7244E-002  
  602.50  8.6704E-002  
  603.00  8.6069E-002  
  603.50  8.5383E-002  
  604.00  8.4762E-002  
  604.50  8.4131E-002  
  605.00  8.3542E-002  
  605.50  8.2947E-002  
  606.00  8.2326E-002  
  606.50  8.1844E-002  
  607.00  8.1209E-002  
  607.50  8.0594E-002  
  608.00  7.9921E-002  
  608.50  7.9349E-002  
  609.00  7.8864E-002  
  609.50  7.8445E-002  
  610.00  7.7931E-002  
  610.50  7.7355E-002  
  611.00  7.6635E-002  
  611.50  7.5894E-002  
  612.00  7.5109E-002  
  612.50  7.4359E-002  
  613.00  7.3711E-002  
  613.50  7.3149E-002  
  614.00  7.2546E-002  
  614.50  7.2068E-002  
  615.00  7.1590E-002  
  615.50  7.1126E-002  
  616.00  7.0519E-002  
  616.50  6.9739E-002  
  617.00  6.9029E-002  
  617.50  6.8299E-002  
  618.00  6.7597E-002  
  618.50  6.7051E-002  
  619.00  6.6546E-002  
  619.50  6.5970E-002  
  620.00  6.5262E-002  
  620.50  6.4533E-002  
  621.00  6.4075E-002  
  621.50  6.3603E-002  
  622.00  6.3100E-002  
  622.50  6.2534E-002  
  623.00  6.1873E-002  
  623.50  6.1313E-002  
  624.00  6.0733E-002  
  624.50  6.0193E-002  
  625.00  5.9690E-002  
  625.50  5.9157E-002  
  626.00  5.8500E-002  
  626.50  5.7781E-002  
  627.00  5.7094E-002  
  627.50  5.6525E-002  
  628.00  5.6022E-002  
  628.50  5.5573E-002  
  629.00  5.5162E-002  
  629.50  5.4656E-002  
  630.00  5.4153E-002  
  630.50  5.3733E-002  
  631.00  5.3240E-002  
  631.50  5.2674E-002  
  632.00  5.1928E-002  
  632.50  5.1290E-002  
  633.00  5.0737E-002  
  633.50  5.0286E-002  
  634.00  4.9962E-002  
  634.50  4.9582E-002  
  635.00  4.9117E-002  
  635.50  4.8445E-002  
  636.00  4.7729E-002  
  636.50  4.7124E-002  
  637.00  4.6709E-002  
  637.50  4.6320E-002  
  638.00  4.5962E-002  
  638.50  4.5450E-002  
  639.00  4.4949E-002  
  639.50  4.4448E-002  
  640.00  4.4004E-002  
  640.50  4.3523E-002  
  641.00  4.3037E-002  
  641.50  4.2613E-002  
  642.00  4.2177E-002  
  642.50  4.1582E-002  
  643.00  4.0973E-002  
  643.50  4.0528E-002  
  644.00  4.0242E-002  
  644.50  3.9823E-002  
  645.00  3.9359E-002  
  645.50  3.8812E-002  
  646.00  3.8394E-002  
  646.50  3.7915E-002  
  647.00  3.7515E-002  
  647.50  3.7156E-002  
  648.00  3.6747E-002  
  648.50  3.6348E-002  
  649.00  3.5917E-002  
  649.50  3.5563E-002  
  650.00  3.5154E-002  
  650.50  3.4717E-002  
  651.00  3.4327E-002  
  651.50  3.3931E-002  
  652.00  3.3523E-002  
  652.50  3.3074E-002  
  653.00  3.2692E-002  
  653.50  3.2324E-002  
  654.00  3.1998E-002  
  654.50  3.1639E-002  
  655.00  3.1321E-002  
  655.50  3.0938E-002  
  656.00  3.0507E-002  
  656.50  2.9999E-002  
  657.00  2.9542E-002  
  657.50  2.9184E-002  
  658.00  2.8907E-002  
  658.50  2.8625E-002  
  659.00  2.8294E-002  
  659.50  2.8015E-002  
  660.00  2.7681E-002  
  660.50  2.7353E-002  
  661.00  2.6923E-002  
  661.50  2.6555E-002  
  662.00  2.6175E-002  
  662.50  2.5819E-002  
  663.00  2.5517E-002  
  663.50  2.5228E-002  
  664.00  2.4911E-002  
  664.50  2.4541E-002  
  665.00  2.4153E-002  
  665.50  2.3840E-002  
  666.00  2.3595E-002  
  666.50  2.3397E-002  
  667.00  2.3127E-002  
  667.50  2.2831E-002  
  668.00  2.2458E-002  
  668.50  2.2156E-002  
  669.00  2.1852E-002  
  669.50  2.1552E-002  
  670.00  2.1318E-002  
  670.50  2.1054E-002  
  671.00  2.0840E-002  
  671.50  2.0478E-002  
  672.00  2.0114E-002  
  672.50  1.9877E-002  
  673.00  1.9714E-002  
  673.50  1.9570E-002  
  674.00  1.9349E-002  
  674.50  1.9067E-002  
  675.00  1.8775E-002  
  675.50  1.8542E-002  
  676.00  1.8326E-002  
  676.50  1.8083E-002  
  677.00  1.7894E-002  
  677.50  1.7745E-002  
  678.00  1.7504E-002  
  678.50  1.7279E-002  
  679.00  1.7103E-002  
  679.50  1.6910E-002  
  680.00  1.6632E-002  
