
# From lspdd.org
# 
# Name: INC Sylvania A21 Domestique
# Indice spectral Valeur 
# MSI 0.33 
# SLI 0.53 
# IPI 0.92 
# Pourcentage de bleu 14.2 
# Caractéristique Valeur 
# CCT calculée (K) 2787 
# CCT du fabricant (K) 2800 
# Tension (V) 120 
# Puissance (W) 300.0 
# Efficacité lumineuse (Lum/W) 19.7 
#
# Image: '/app/system/img_2s/2472/medium_image2.JPG?1413485808'
# Image: '/app/system/img_1s/2472/medium_image1.JPG?1413485809'
# 

  273.00  0.0000E+000  
  273.50  0.0000E+000  
  274.00  0.0000E+000  
  274.50  0.0000E+000  
  275.00  0.0000E+000  
  275.50  0.0000E+000  
  276.00  0.0000E+000  
  276.50  0.0000E+000  
  277.00  0.0000E+000  
  277.50  0.0000E+000  
  278.00  0.0000E+000  
  278.50  0.0000E+000  
  279.00  0.0000E+000  
  279.50  0.0000E+000  
  280.00  0.0000E+000  
  280.50  0.0000E+000  
  281.00  0.0000E+000  
  281.50  0.0000E+000  
  282.00  0.0000E+000  
  282.50  0.0000E+000  
  283.00  0.0000E+000  
  283.50  0.0000E+000  
  284.00  0.0000E+000  
  284.50  0.0000E+000  
  285.00  0.0000E+000  
  285.50  0.0000E+000  
  286.00  0.0000E+000  
  286.50  0.0000E+000  
  287.00  0.0000E+000  
  287.50  0.0000E+000  
  288.00  0.0000E+000  
  288.50  0.0000E+000  
  289.00  0.0000E+000  
  289.50  0.0000E+000  
  290.00  0.0000E+000  
  290.50  0.0000E+000  
  291.00  0.0000E+000  
  291.50  0.0000E+000  
  292.00  0.0000E+000  
  292.50  0.0000E+000  
  293.00  0.0000E+000  
  293.50  0.0000E+000  
  294.00  0.0000E+000  
  294.50  0.0000E+000  
  295.00  0.0000E+000  
  295.50  0.0000E+000  
  296.00  0.0000E+000  
  296.50  0.0000E+000  
  297.00  0.0000E+000  
  297.50  0.0000E+000  
  298.00  0.0000E+000  
  298.50  0.0000E+000  
  299.00  0.0000E+000  
  299.50  0.0000E+000  
  300.00  9.8413E-005  
  300.50  2.6341E-004  
  301.00  2.1806E-004  
  301.50  2.4759E-004  
  302.00  2.5148E-004  
  302.50  2.0935E-004  
  303.00  2.1443E-004  
  303.50  1.5934E-004  
  304.00  1.8963E-004  
  304.50  2.6798E-004  
  305.00  2.8068E-004  
  305.50  3.1097E-004  
  306.00  2.9215E-004  
  306.50  2.8998E-004  
  307.00  3.3029E-004  
  307.50  4.1553E-004  
  308.00  4.7144E-004  
  308.50  5.2859E-004  
  309.00  5.9850E-004  
  309.50  5.6467E-004  
  310.00  5.0952E-004  
  310.50  4.9217E-004  
  311.00  4.4406E-004  
  311.50  4.6549E-004  
  312.00  4.8267E-004  
  312.50  4.8984E-004  
  313.00  5.3620E-004  
  313.50  5.5040E-004  
  314.00  5.6312E-004  
  314.50  5.0665E-004  
  315.00  4.8904E-004  
  315.50  4.8223E-004  
  316.00  5.0631E-004  
  316.50  5.6479E-004  
  317.00  5.9200E-004  
  317.50  6.6494E-004  
  318.00  7.2312E-004  
  318.50  6.8772E-004  
  319.00  6.5121E-004  
  319.50  5.8316E-004  
  320.00  5.5737E-004  
  320.50  6.0516E-004  
  321.00  6.9459E-004  
  321.50  8.0427E-004  
  322.00  8.1854E-004  
  322.50  8.5719E-004  
  323.00  8.3687E-004  
  323.50  8.0542E-004  
  324.00  8.2607E-004  
  324.50  8.6807E-004  
  325.00  9.1927E-004  
  325.50  9.6532E-004  
  326.00  1.0161E-003  
  326.50  9.8593E-004  
  327.00  9.6022E-004  
  327.50  9.1826E-004  
  328.00  8.8847E-004  
  328.50  9.2714E-004  
  329.00  9.5995E-004  
  329.50  1.0102E-003  
  330.00  1.0106E-003  
  330.50  9.8037E-004  
  331.00  9.9101E-004  
  331.50  1.0277E-003  
  332.00  1.0946E-003  
  332.50  1.1797E-003  
  333.00  1.2268E-003  
  333.50  1.2108E-003  
  334.00  1.1997E-003  
  334.50  1.1824E-003  
  335.00  1.1714E-003  
  335.50  1.2083E-003  
  336.00  1.2509E-003  
  336.50  1.2853E-003  
  337.00  1.3054E-003  
  337.50  1.3040E-003  
  338.00  1.3085E-003  
  338.50  1.2810E-003  
  339.00  1.3073E-003  
  339.50  1.3315E-003  
  340.00  1.3811E-003  
  340.50  1.4394E-003  
  341.00  1.4739E-003  
  341.50  1.5238E-003  
  342.00  1.5241E-003  
  342.50  1.5609E-003  
  343.00  1.6081E-003  
  343.50  1.6383E-003  
  344.00  1.6775E-003  
  344.50  1.6848E-003  
  345.00  1.6789E-003  
  345.50  1.7093E-003  
  346.00  1.7500E-003  
  346.50  1.7944E-003  
  347.00  1.8083E-003  
  347.50  1.8447E-003  
  348.00  1.9114E-003  
  348.50  1.9661E-003  
  349.00  1.9844E-003  
  349.50  2.0061E-003  
  350.00  1.9864E-003  
  350.50  1.9937E-003  
  351.00  2.0221E-003  
  351.50  2.0130E-003  
  352.00  2.0565E-003  
  352.50  2.0899E-003  
  353.00  2.1307E-003  
  353.50  2.1304E-003  
  354.00  2.1709E-003  
  354.50  2.2412E-003  
  355.00  2.2730E-003  
  355.50  2.3491E-003  
  356.00  2.3434E-003  
  356.50  2.3309E-003  
  357.00  2.3719E-003  
  357.50  2.4060E-003  
  358.00  2.4490E-003  
  358.50  2.5453E-003  
  359.00  2.5921E-003  
  359.50  2.6008E-003  
  360.00  2.5907E-003  
  360.50  2.5561E-003  
  361.00  2.5736E-003  
  361.50  2.6127E-003  
  362.00  2.6769E-003  
  362.50  2.7509E-003  
  363.00  2.8217E-003  
  363.50  2.8712E-003  
  364.00  2.9525E-003  
  364.50  2.9941E-003  
  365.00  3.0591E-003  
  365.50  3.1308E-003  
  366.00  3.0832E-003  
  366.50  3.0580E-003  
  367.00  3.0751E-003  
  367.50  3.0614E-003  
  368.00  3.1276E-003  
  368.50  3.1598E-003  
  369.00  3.2243E-003  
  369.50  3.3847E-003  
  370.00  3.4891E-003  
  370.50  3.5541E-003  
  371.00  3.5144E-003  
  371.50  3.4458E-003  
  372.00  3.4543E-003  
  372.50  3.4712E-003  
  373.00  3.5090E-003  
  373.50  3.5346E-003  
  374.00  3.5365E-003  
  374.50  3.6301E-003  
  375.00  3.7451E-003  
  375.50  3.8344E-003  
  376.00  3.8730E-003  
  376.50  3.8848E-003  
  377.00  3.8974E-003  
  377.50  3.9334E-003  
  378.00  3.9842E-003  
  378.50  3.9810E-003  
  379.00  4.0100E-003  
  379.50  4.1106E-003  
  380.00  4.2623E-003  
  380.50  4.3938E-003  
  381.00  4.4648E-003  
  381.50  4.4807E-003  
  382.00  4.4912E-003  
  382.50  4.5223E-003  
  383.00  4.5243E-003  
  383.50  4.5610E-003  
  384.00  4.6207E-003  
  384.50  4.7368E-003  
  385.00  4.8620E-003  
  385.50  4.9592E-003  
  386.00  4.9842E-003  
  386.50  5.0060E-003  
  387.00  5.0082E-003  
  387.50  4.9743E-003  
  388.00  4.9899E-003  
  388.50  5.0031E-003  
  389.00  5.0364E-003  
  389.50  5.1234E-003  
  390.00  5.2257E-003  
  390.50  5.3699E-003  
  391.00  5.4127E-003  
  391.50  5.4991E-003  
  392.00  5.5383E-003  
  392.50  5.5367E-003  
  393.00  5.5846E-003  
  393.50  5.5812E-003  
  394.00  5.5824E-003  
  394.50  5.5908E-003  
  395.00  5.5798E-003  
  395.50  5.6194E-003  
  396.00  5.6783E-003  
  396.50  5.7982E-003  
  397.00  5.9096E-003  
  397.50  5.9718E-003  
  398.00  6.0790E-003  
  398.50  6.1098E-003  
  399.00  6.2080E-003  
  399.50  6.2925E-003  
  400.00  6.3001E-003  
  400.50  6.3031E-003  
  401.00  6.3133E-003  
  401.50  6.3874E-003  
  402.00  6.5453E-003  
  402.50  6.6898E-003  
  403.00  6.7351E-003  
  403.50  6.7515E-003  
  404.00  6.7726E-003  
  404.50  6.8250E-003  
  405.00  6.9533E-003  
  405.50  7.1181E-003  
  406.00  7.2010E-003  
  406.50  7.2114E-003  
  407.00  7.1724E-003  
  407.50  7.1493E-003  
  408.00  7.2468E-003  
  408.50  7.3824E-003  
  409.00  7.4966E-003  
  409.50  7.6043E-003  
  410.00  7.6886E-003  
  410.50  7.7286E-003  
  411.00  7.7564E-003  
  411.50  7.8084E-003  
  412.00  7.8473E-003  
  412.50  7.9644E-003  
  413.00  8.0052E-003  
  413.50  8.0506E-003  
  414.00  8.1307E-003  
  414.50  8.1885E-003  
  415.00  8.3145E-003  
  415.50  8.4506E-003  
  416.00  8.5831E-003  
  416.50  8.6867E-003  
  417.00  8.7686E-003  
  417.50  8.7852E-003  
  418.00  8.8435E-003  
  418.50  8.9126E-003  
  419.00  9.0058E-003  
  419.50  9.1350E-003  
  420.00  9.1909E-003  
  420.50  9.2373E-003  
  421.00  9.2310E-003  
  421.50  9.2443E-003  
  422.00  9.3091E-003  
  422.50  9.3990E-003  
  423.00  9.5184E-003  
  423.50  9.6680E-003  
  424.00  9.7894E-003  
  424.50  9.8444E-003  
  425.00  9.9263E-003  
  425.50  1.0016E-002  
  426.00  1.0134E-002  
  426.50  1.0224E-002  
  427.00  1.0273E-002  
  427.50  1.0329E-002  
  428.00  1.0454E-002  
  428.50  1.0525E-002  
  429.00  1.0612E-002  
  429.50  1.0646E-002  
  430.00  1.0620E-002  
  430.50  1.0664E-002  
  431.00  1.0765E-002  
  431.50  1.0905E-002  
  432.00  1.1104E-002  
  432.50  1.1202E-002  
  433.00  1.1253E-002  
  433.50  1.1320E-002  
  434.00  1.1423E-002  
  434.50  1.1527E-002  
  435.00  1.1607E-002  
  435.50  1.1655E-002  
  436.00  1.1691E-002  
  436.50  1.1798E-002  
  437.00  1.1948E-002  
  437.50  1.2070E-002  
  438.00  1.2195E-002  
  438.50  1.2273E-002  
  439.00  1.2343E-002  
  439.50  1.2469E-002  
  440.00  1.2583E-002  
  440.50  1.2724E-002  
  441.00  1.2794E-002  
  441.50  1.2832E-002  
  442.00  1.2825E-002  
  442.50  1.2854E-002  
  443.00  1.2927E-002  
  443.50  1.2996E-002  
  444.00  1.3124E-002  
  444.50  1.3253E-002  
  445.00  1.3390E-002  
  445.50  1.3504E-002  
  446.00  1.3563E-002  
  446.50  1.3636E-002  
  447.00  1.3757E-002  
  447.50  1.3910E-002  
  448.00  1.4059E-002  
  448.50  1.4169E-002  
  449.00  1.4268E-002  
  449.50  1.4367E-002  
  450.00  1.4450E-002  
  450.50  1.4572E-002  
  451.00  1.4643E-002  
  451.50  1.4718E-002  
  452.00  1.4782E-002  
  452.50  1.4875E-002  
  453.00  1.4994E-002  
  453.50  1.5105E-002  
  454.00  1.5155E-002  
  454.50  1.5180E-002  
  455.00  1.5219E-002  
  455.50  1.5288E-002  
  456.00  1.5446E-002  
  456.50  1.5702E-002  
  457.00  1.5955E-002  
  457.50  1.6166E-002  
  458.00  1.6277E-002  
  458.50  1.6361E-002  
  459.00  1.6397E-002  
  459.50  1.6455E-002  
  460.00  1.6529E-002  
  460.50  1.6620E-002  
  461.00  1.6746E-002  
  461.50  1.6821E-002  
  462.00  1.6882E-002  
  462.50  1.7041E-002  
  463.00  1.7237E-002  
  463.50  1.7387E-002  
  464.00  1.7523E-002  
  464.50  1.7597E-002  
  465.00  1.7734E-002  
  465.50  1.7914E-002  
  466.00  1.8005E-002  
  466.50  1.8130E-002  
  467.00  1.8166E-002  
  467.50  1.8233E-002  
  468.00  1.8386E-002  
  468.50  1.8521E-002  
  469.00  1.8667E-002  
  469.50  1.8751E-002  
  470.00  1.8756E-002  
  470.50  1.8821E-002  
  471.00  1.8926E-002  
  471.50  1.9080E-002  
  472.00  1.9254E-002  
  472.50  1.9440E-002  
  473.00  1.9636E-002  
  473.50  1.9757E-002  
  474.00  1.9823E-002  
  474.50  1.9865E-002  
  475.00  1.9855E-002  
  475.50  1.9971E-002  
  476.00  2.0083E-002  
  476.50  2.0295E-002  
  477.00  2.0506E-002  
  477.50  2.0613E-002  
  478.00  2.0678E-002  
  478.50  2.0798E-002  
  479.00  2.1009E-002  
  479.50  2.1263E-002  
  480.00  2.1438E-002  
  480.50  2.1505E-002  
  481.00  2.1554E-002  
  481.50  2.1617E-002  
  482.00  2.1722E-002  
  482.50  2.1813E-002  
  483.00  2.1898E-002  
  483.50  2.1982E-002  
  484.00  2.2089E-002  
  484.50  2.2192E-002  
  485.00  2.2271E-002  
  485.50  2.2391E-002  
  486.00  2.2557E-002  
  486.50  2.2772E-002  
  487.00  2.2953E-002  
  487.50  2.3117E-002  
  488.00  2.3312E-002  
  488.50  2.3504E-002  
  489.00  2.3683E-002  
  489.50  2.3801E-002  
  490.00  2.3869E-002  
  490.50  2.3959E-002  
  491.00  2.4087E-002  
  491.50  2.4160E-002  
  492.00  2.4227E-002  
  492.50  2.4286E-002  
  493.00  2.4472E-002  
  493.50  2.4750E-002  
  494.00  2.5004E-002  
  494.50  2.5197E-002  
  495.00  2.5320E-002  
  495.50  2.5449E-002  
  496.00  2.5614E-002  
  496.50  2.5798E-002  
  497.00  2.5968E-002  
  497.50  2.6079E-002  
  498.00  2.6124E-002  
  498.50  2.6171E-002  
  499.00  2.6272E-002  
  499.50  2.6456E-002  
  500.00  2.6728E-002  
  500.50  2.6985E-002  
  501.00  2.7218E-002  
  501.50  2.7389E-002  
  502.00  2.7495E-002  
  502.50  2.7590E-002  
  503.00  2.7728E-002  
  503.50  2.7929E-002  
  504.00  2.8221E-002  
  504.50  2.8493E-002  
  505.00  2.8654E-002  
  505.50  2.8802E-002  
  506.00  2.8915E-002  
  506.50  2.9111E-002  
  507.00  2.9316E-002  
  507.50  2.9537E-002  
  508.00  2.9751E-002  
  508.50  3.0035E-002  
  509.00  3.0278E-002  
  509.50  3.0517E-002  
  510.00  3.0750E-002  
  510.50  3.0918E-002  
  511.00  3.1117E-002  
  511.50  3.1287E-002  
  512.00  3.1465E-002  
  512.50  3.1697E-002  
  513.00  3.1948E-002  
  513.50  3.2195E-002  
  514.00  3.2414E-002  
  514.50  3.2628E-002  
  515.00  3.2839E-002  
  515.50  3.3032E-002  
  516.00  3.3254E-002  
  516.50  3.3505E-002  
  517.00  3.3753E-002  
  517.50  3.3993E-002  
  518.00  3.4215E-002  
  518.50  3.4486E-002  
  519.00  3.4799E-002  
  519.50  3.4982E-002  
  520.00  3.5121E-002  
  520.50  3.5280E-002  
  521.00  3.5513E-002  
  521.50  3.5812E-002  
  522.00  3.6025E-002  
  522.50  3.6239E-002  
  523.00  3.6439E-002  
  523.50  3.6674E-002  
  524.00  3.6924E-002  
  524.50  3.7145E-002  
  525.00  3.7370E-002  
  525.50  3.7583E-002  
  526.00  3.7792E-002  
  526.50  3.8034E-002  
  527.00  3.8220E-002  
  527.50  3.8449E-002  
  528.00  3.8715E-002  
  528.50  3.9003E-002  
  529.00  3.9317E-002  
  529.50  3.9561E-002  
  530.00  3.9786E-002  
  530.50  3.9981E-002  
  531.00  4.0184E-002  
  531.50  4.0415E-002  
  532.00  4.0698E-002  
  532.50  4.0996E-002  
  533.00  4.1320E-002  
  533.50  4.1649E-002  
  534.00  4.1864E-002  
  534.50  4.2050E-002  
  535.00  4.2219E-002  
  535.50  4.2476E-002  
  536.00  4.2749E-002  
  536.50  4.2954E-002  
  537.00  4.3169E-002  
  537.50  4.3386E-002  
  538.00  4.3645E-002  
  538.50  4.3818E-002  
  539.00  4.4020E-002  
  539.50  4.4239E-002  
  540.00  4.4409E-002  
  540.50  4.4574E-002  
  541.00  4.4794E-002  
  541.50  4.5097E-002  
  542.00  4.5451E-002  
  542.50  4.5696E-002  
  543.00  4.5879E-002  
  543.50  4.6070E-002  
  544.00  4.6405E-002  
  544.50  4.6719E-002  
  545.00  4.7010E-002  
  545.50  4.7234E-002  
  546.00  4.7479E-002  
  546.50  4.7758E-002  
  547.00  4.7987E-002  
  547.50  4.8169E-002  
  548.00  4.8369E-002  
  548.50  4.8621E-002  
  549.00  4.8865E-002  
  549.50  4.9085E-002  
  550.00  4.9320E-002  
  550.50  4.9603E-002  
  551.00  4.9904E-002  
  551.50  5.0167E-002  
  552.00  5.0427E-002  
  552.50  5.0678E-002  
  553.00  5.0907E-002  
  553.50  5.1093E-002  
  554.00  5.1315E-002  
  554.50  5.1580E-002  
  555.00  5.1824E-002  
  555.50  5.2013E-002  
  556.00  5.2214E-002  
  556.50  5.2442E-002  
  557.00  5.2689E-002  
  557.50  5.2927E-002  
  558.00  5.3169E-002  
  558.50  5.3430E-002  
  559.00  5.3686E-002  
  559.50  5.3894E-002  
  560.00  5.4091E-002  
  560.50  5.4270E-002  
  561.00  5.4457E-002  
  561.50  5.4729E-002  
  562.00  5.5009E-002  
  562.50  5.5263E-002  
  563.00  5.5432E-002  
  563.50  5.5545E-002  
  564.00  5.5672E-002  
  564.50  5.5876E-002  
  565.00  5.6086E-002  
  565.50  5.6264E-002  
  566.00  5.6451E-002  
  566.50  5.6720E-002  
  567.00  5.7022E-002  
  567.50  5.7373E-002  
  568.00  5.7601E-002  
  568.50  5.7736E-002  
  569.00  5.7861E-002  
  569.50  5.8048E-002  
  570.00  5.8318E-002  
  570.50  5.8490E-002  
  571.00  5.8613E-002  
  571.50  5.8656E-002  
  572.00  5.8789E-002  
  572.50  5.8972E-002  
  573.00  5.9268E-002  
  573.50  5.9537E-002  
  574.00  5.9760E-002  
  574.50  5.9959E-002  
  575.00  6.0140E-002  
  575.50  6.0361E-002  
  576.00  6.0564E-002  
  576.50  6.0781E-002  
  577.00  6.0978E-002  
  577.50  6.1195E-002  
  578.00  6.1451E-002  
  578.50  6.1753E-002  
  579.00  6.1990E-002  
  579.50  6.2151E-002  
  580.00  6.2228E-002  
  580.50  6.2292E-002  
  581.00  6.2375E-002  
  581.50  6.2546E-002  
  582.00  6.2772E-002  
  582.50  6.3021E-002  
  583.00  6.3114E-002  
  583.50  6.3218E-002  
  584.00  6.3324E-002  
  584.50  6.3524E-002  
  585.00  6.3755E-002  
  585.50  6.4021E-002  
  586.00  6.4244E-002  
  586.50  6.4414E-002  
  587.00  6.4631E-002  
  587.50  6.4905E-002  
  588.00  6.5137E-002  
  588.50  6.5285E-002  
  589.00  6.5372E-002  
  589.50  6.5522E-002  
  590.00  6.5727E-002  
  590.50  6.5936E-002  
  591.00  6.6165E-002  
  591.50  6.6272E-002  
  592.00  6.6410E-002  
  592.50  6.6546E-002  
  593.00  6.6788E-002  
  593.50  6.6887E-002  
  594.00  6.7028E-002  
  594.50  6.7127E-002  
  595.00  6.7337E-002  
  595.50  6.7497E-002  
  596.00  6.7655E-002  
  596.50  6.7833E-002  
  597.00  6.7998E-002  
  597.50  6.8127E-002  
  598.00  6.8253E-002  
  598.50  6.8391E-002  
  599.00  6.8551E-002  
  599.50  6.8703E-002  
  600.00  6.8947E-002  
  600.50  6.9113E-002  
  601.00  6.9332E-002  
  601.50  6.9423E-002  
  602.00  6.9557E-002  
  602.50  6.9748E-002  
  603.00  6.9930E-002  
  603.50  7.0094E-002  
  604.00  7.0162E-002  
  604.50  7.0255E-002  
  605.00  7.0392E-002  
  605.50  7.0558E-002  
  606.00  7.0592E-002  
  606.50  7.0719E-002  
  607.00  7.0871E-002  
  607.50  7.1074E-002  
  608.00  7.1210E-002  
  608.50  7.1353E-002  
  609.00  7.1509E-002  
  609.50  7.1690E-002  
  610.00  7.1742E-002  
  610.50  7.1713E-002  
  611.00  7.1684E-002  
  611.50  7.1721E-002  
  612.00  7.2027E-002  
  612.50  7.2363E-002  
  613.00  7.2703E-002  
  613.50  7.2889E-002  
  614.00  7.3036E-002  
  614.50  7.3145E-002  
  615.00  7.3243E-002  
  615.50  7.3247E-002  
  616.00  7.3267E-002  
  616.50  7.3377E-002  
  617.00  7.3491E-002  
  617.50  7.3601E-002  
  618.00  7.3674E-002  
  618.50  7.3783E-002  
  619.00  7.3897E-002  
  619.50  7.4015E-002  
  620.00  7.4189E-002  
  620.50  7.4359E-002  
  621.00  7.4480E-002  
  621.50  7.4450E-002  
  622.00  7.4482E-002  
  622.50  7.4570E-002  
  623.00  7.4711E-002  
  623.50  7.4874E-002  
  624.00  7.5130E-002  
  624.50  7.5403E-002  
  625.00  7.5604E-002  
  625.50  7.5666E-002  
  626.00  7.5571E-002  
  626.50  7.5504E-002  
  627.00  7.5575E-002  
  627.50  7.5881E-002  
  628.00  7.6120E-002  
  628.50  7.6184E-002  
  629.00  7.6320E-002  
  629.50  7.6462E-002  
  630.00  7.6692E-002  
  630.50  7.6764E-002  
  631.00  7.6823E-002  
  631.50  7.6918E-002  
  632.00  7.6970E-002  
  632.50  7.7109E-002  
  633.00  7.7208E-002  
  633.50  7.7182E-002  
  634.00  7.7225E-002  
  634.50  7.7356E-002  
  635.00  7.7596E-002  
  635.50  7.7664E-002  
  636.00  7.7770E-002  
  636.50  7.7943E-002  
  637.00  7.8148E-002  
  637.50  7.8208E-002  
  638.00  7.8302E-002  
  638.50  7.8477E-002  
  639.00  7.8725E-002  
  639.50  7.8781E-002  
  640.00  7.8804E-002  
  640.50  7.8837E-002  
  641.00  7.8926E-002  
  641.50  7.8996E-002  
  642.00  7.9139E-002  
  642.50  7.9275E-002  
  643.00  7.9415E-002  
  643.50  7.9372E-002  
  644.00  7.9454E-002  
  644.50  7.9636E-002  
  645.00  7.9896E-002  
  645.50  8.0079E-002  
  646.00  8.0225E-002  
  646.50  8.0256E-002  
  647.00  8.0387E-002  
  647.50  8.0409E-002  
  648.00  8.0495E-002  
  648.50  8.0493E-002  
  649.00  8.0583E-002  
  649.50  8.0759E-002  
  650.00  8.0967E-002  
  650.50  8.1110E-002  
  651.00  8.1101E-002  
  651.50  8.1022E-002  
  652.00  8.0949E-002  
  652.50  8.1143E-002  
  653.00  8.1264E-002  
  653.50  8.1401E-002  
  654.00  8.1526E-002  
  654.50  8.1620E-002  
  655.00  8.1686E-002  
  655.50  8.1749E-002  
  656.00  8.1862E-002  
  656.50  8.1891E-002  
  657.00  8.1817E-002  
  657.50  8.1923E-002  
  658.00  8.2152E-002  
  658.50  8.2423E-002  
  659.00  8.2523E-002  
  659.50  8.2561E-002  
  660.00  8.2504E-002  
  660.50  8.2551E-002  
  661.00  8.2665E-002  
  661.50  8.2785E-002  
  662.00  8.2805E-002  
  662.50  8.3002E-002  
  663.00  8.3175E-002  
  663.50  8.3291E-002  
  664.00  8.3259E-002  
  664.50  8.3208E-002  
  665.00  8.3291E-002  
  665.50  8.3235E-002  
  666.00  8.3230E-002  
  666.50  8.3213E-002  
  667.00  8.3409E-002  
  667.50  8.3556E-002  
  668.00  8.3671E-002  
  668.50  8.3763E-002  
  669.00  8.3981E-002  
  669.50  8.4206E-002  
  670.00  8.4293E-002  
  670.50  8.4246E-002  
  671.00  8.4205E-002  
  671.50  8.4178E-002  
  672.00  8.4139E-002  
  672.50  8.4065E-002  
  673.00  8.4022E-002  
  673.50  8.4091E-002  
  674.00  8.4287E-002  
  674.50  8.4609E-002  
  675.00  8.4777E-002  
  675.50  8.4884E-002  
  676.00  8.4818E-002  
  676.50  8.4930E-002  
  677.00  8.5002E-002  
  677.50  8.5199E-002  
  678.00  8.5291E-002  
  678.50  8.5376E-002  
  679.00  8.5449E-002  
  679.50  8.5703E-002  
  680.00  8.5751E-002  
