
# From lspdd.org
# 
# Name: DEL Ledtech PAR20 Domestique
# Indice spectral Valeur 
# MSI 0.41 
# SLI 0.60 
# IPI 0.63 
# Pourcentage de bleu 27.0 
# Caractéristique Valeur 
# CCT calculée (K) 3769 
# CCT du fabricant (K) 3816 
# Tension (V) 120 
# Puissance (W) 8.0 
# Efficacité lumineuse (Lum/W) ND 
#
# Image: '/app/system/img_2s/2474/medium_image2.jpg?1413485819'
# Image: '/app/system/img_1s/2474/medium_image1.jpg?1413485819'
# 

  273.00  0.0000E+000  
  273.50  0.0000E+000  
  274.00  0.0000E+000  
  274.50  0.0000E+000  
  275.00  0.0000E+000  
  275.50  0.0000E+000  
  276.00  0.0000E+000  
  276.50  0.0000E+000  
  277.00  0.0000E+000  
  277.50  0.0000E+000  
  278.00  0.0000E+000  
  278.50  0.0000E+000  
  279.00  0.0000E+000  
  279.50  0.0000E+000  
  280.00  0.0000E+000  
  280.50  0.0000E+000  
  281.00  0.0000E+000  
  281.50  0.0000E+000  
  282.00  0.0000E+000  
  282.50  0.0000E+000  
  283.00  0.0000E+000  
  283.50  0.0000E+000  
  284.00  0.0000E+000  
  284.50  0.0000E+000  
  285.00  0.0000E+000  
  285.50  0.0000E+000  
  286.00  0.0000E+000  
  286.50  0.0000E+000  
  287.00  0.0000E+000  
  287.50  0.0000E+000  
  288.00  0.0000E+000  
  288.50  0.0000E+000  
  289.00  0.0000E+000  
  289.50  0.0000E+000  
  290.00  0.0000E+000  
  290.50  0.0000E+000  
  291.00  0.0000E+000  
  291.50  0.0000E+000  
  292.00  0.0000E+000  
  292.50  0.0000E+000  
  293.00  0.0000E+000  
  293.50  0.0000E+000  
  294.00  0.0000E+000  
  294.50  0.0000E+000  
  295.00  0.0000E+000  
  295.50  0.0000E+000  
  296.00  0.0000E+000  
  296.50  0.0000E+000  
  297.00  0.0000E+000  
  297.50  0.0000E+000  
  298.00  0.0000E+000  
  298.50  0.0000E+000  
  299.00  0.0000E+000  
  299.50  0.0000E+000  
  300.00  5.9822E-005  
  300.50  1.3717E-004  
  301.00  9.5902E-005  
  301.50  7.7546E-005  
  302.00  7.6911E-005  
  302.50  1.0833E-004  
  303.00  1.3208E-004  
  303.50  1.5005E-004  
  304.00  1.7041E-004  
  304.50  1.2056E-004  
  305.00  5.6454E-005  
  305.50  6.1104E-005  
  306.00  7.1459E-005  
  306.50  6.7734E-005  
  307.00  1.2212E-004  
  307.50  1.6345E-004  
  308.00  1.8278E-004  
  308.50  2.0025E-004  
  309.00  1.5985E-004  
  309.50  1.1528E-004  
  310.00  7.6606E-005  
  310.50  1.2284E-004  
  311.00  1.7839E-004  
  311.50  1.9049E-004  
  312.00  1.5158E-004  
  312.50  4.8977E-005  
  313.00  0.0000E+000  
  313.50  0.0000E+000  
  314.00  2.0131E-005  
  314.50  7.1823E-005  
  315.00  6.8431E-005  
  315.50  2.8371E-005  
  316.00  2.2811E-005  
  316.50  2.9864E-005  
  317.00  7.4463E-005  
  317.50  1.2892E-004  
  318.00  1.3432E-004  
  318.50  1.4847E-004  
  319.00  1.7223E-004  
  319.50  2.0298E-004  
  320.00  2.4951E-004  
  320.50  2.4224E-004  
  321.00  1.9202E-004  
  321.50  1.6424E-004  
  322.00  1.1873E-004  
  322.50  9.7922E-005  
  323.00  1.1273E-004  
  323.50  1.0193E-004  
  324.00  1.3240E-004  
  324.50  1.7686E-004  
  325.00  1.9600E-004  
  325.50  1.7989E-004  
  326.00  1.1008E-004  
  326.50  4.7873E-005  
  327.00  1.3168E-006  
  327.50  3.5578E-005  
  328.00  7.3830E-005  
  328.50  1.0969E-004  
  329.00  1.4787E-004  
  329.50  1.6880E-004  
  330.00  1.9858E-004  
  330.50  2.5578E-004  
  331.00  2.7163E-004  
  331.50  2.6845E-004  
  332.00  2.8979E-004  
  332.50  2.6419E-004  
  333.00  2.2510E-004  
  333.50  2.0637E-004  
  334.00  1.5008E-004  
  334.50  1.4697E-004  
  335.00  1.9020E-004  
  335.50  2.2746E-004  
  336.00  2.5385E-004  
  336.50  1.8827E-004  
  337.00  1.3035E-004  
  337.50  1.4480E-004  
  338.00  1.9531E-004  
  338.50  2.4227E-004  
  339.00  2.7885E-004  
  339.50  3.0819E-004  
  340.00  3.7910E-004  
  340.50  3.9423E-004  
  341.00  3.3565E-004  
  341.50  2.1239E-004  
  342.00  9.6625E-005  
  342.50  7.9820E-005  
  343.00  1.1785E-004  
  343.50  1.4556E-004  
  344.00  1.2726E-004  
  344.50  1.3283E-004  
  345.00  1.1091E-004  
  345.50  1.5633E-004  
  346.00  2.1161E-004  
  346.50  2.4221E-004  
  347.00  2.9307E-004  
  347.50  2.8699E-004  
  348.00  2.8027E-004  
  348.50  2.7083E-004  
  349.00  2.5276E-004  
  349.50  2.5452E-004  
  350.00  2.6621E-004  
  350.50  1.9056E-004  
  351.00  1.2186E-004  
  351.50  1.1034E-004  
  352.00  9.9282E-005  
  352.50  1.3275E-004  
  353.00  1.8213E-004  
  353.50  2.0284E-004  
  354.00  2.4591E-004  
  354.50  2.5709E-004  
  355.00  2.1107E-004  
  355.50  1.7482E-004  
  356.00  1.5728E-004  
  356.50  1.1413E-004  
  357.00  1.4742E-004  
  357.50  1.8287E-004  
  358.00  2.3049E-004  
  358.50  3.0774E-004  
  359.00  2.9687E-004  
  359.50  2.8692E-004  
  360.00  2.7033E-004  
  360.50  2.5490E-004  
  361.00  2.5551E-004  
  361.50  1.9182E-004  
  362.00  1.4191E-004  
  362.50  1.5376E-004  
  363.00  2.3624E-004  
  363.50  3.2099E-004  
  364.00  3.7440E-004  
  364.50  3.2559E-004  
  365.00  2.6105E-004  
  365.50  2.3732E-004  
  366.00  2.0765E-004  
  366.50  1.8947E-004  
  367.00  1.7783E-004  
  367.50  1.5391E-004  
  368.00  1.9618E-004  
  368.50  2.5643E-004  
  369.00  3.0955E-004  
  369.50  3.6456E-004  
  370.00  3.8486E-004  
  370.50  4.3466E-004  
  371.00  4.7037E-004  
  371.50  4.4478E-004  
  372.00  4.1879E-004  
  372.50  3.5650E-004  
  373.00  3.1297E-004  
  373.50  2.9348E-004  
  374.00  2.7484E-004  
  374.50  2.5746E-004  
  375.00  2.5066E-004  
  375.50  2.6152E-004  
  376.00  2.6299E-004  
  376.50  2.5109E-004  
  377.00  2.6441E-004  
  377.50  2.9844E-004  
  378.00  3.0756E-004  
  378.50  2.8720E-004  
  379.00  2.4239E-004  
  379.50  1.5795E-004  
  380.00  1.8352E-004  
  380.50  1.9701E-004  
  381.00  2.2295E-004  
  381.50  2.2891E-004  
  382.00  1.9741E-004  
  382.50  1.8909E-004  
  383.00  1.5113E-004  
  383.50  1.6015E-004  
  384.00  2.1562E-004  
  384.50  2.7608E-004  
  385.00  3.0847E-004  
  385.50  3.0554E-004  
  386.00  2.9502E-004  
  386.50  2.9924E-004  
  387.00  2.9207E-004  
  387.50  2.9674E-004  
  388.00  2.5155E-004  
  388.50  2.4095E-004  
  389.00  2.6129E-004  
  389.50  2.4474E-004  
  390.00  2.9546E-004  
  390.50  3.4561E-004  
  391.00  3.7486E-004  
  391.50  3.8475E-004  
  392.00  3.9948E-004  
  392.50  3.9076E-004  
  393.00  4.3755E-004  
  393.50  4.4325E-004  
  394.00  3.8678E-004  
  394.50  3.4452E-004  
  395.00  3.1411E-004  
  395.50  3.5825E-004  
  396.00  4.3483E-004  
  396.50  4.5343E-004  
  397.00  4.5539E-004  
  397.50  4.3221E-004  
  398.00  4.1991E-004  
  398.50  4.2464E-004  
  399.00  4.6452E-004  
  399.50  5.1786E-004  
  400.00  5.3954E-004  
  400.50  5.4139E-004  
  401.00  5.4638E-004  
  401.50  5.5822E-004  
  402.00  5.7414E-004  
  402.50  5.6175E-004  
  403.00  4.9031E-004  
  403.50  4.8028E-004  
  404.00  4.9329E-004  
  404.50  5.5364E-004  
  405.00  6.0937E-004  
  405.50  6.5035E-004  
  406.00  6.9211E-004  
  406.50  7.0094E-004  
  407.00  7.1480E-004  
  407.50  7.7194E-004  
  408.00  8.0873E-004  
  408.50  8.6173E-004  
  409.00  8.5419E-004  
  409.50  8.3902E-004  
  410.00  8.8412E-004  
  410.50  1.0058E-003  
  411.00  1.1604E-003  
  411.50  1.2756E-003  
  412.00  1.3716E-003  
  412.50  1.4174E-003  
  413.00  1.5088E-003  
  413.50  1.5633E-003  
  414.00  1.6494E-003  
  414.50  1.7335E-003  
  415.00  1.8567E-003  
  415.50  1.9977E-003  
  416.00  2.1335E-003  
  416.50  2.2831E-003  
  417.00  2.4744E-003  
  417.50  2.6947E-003  
  418.00  2.8776E-003  
  418.50  3.1438E-003  
  419.00  3.3528E-003  
  419.50  3.5518E-003  
  420.00  3.8082E-003  
  420.50  3.9946E-003  
  421.00  4.2513E-003  
  421.50  4.5306E-003  
  422.00  4.8777E-003  
  422.50  5.3172E-003  
  423.00  5.7729E-003  
  423.50  6.2365E-003  
  424.00  6.6379E-003  
  424.50  7.0483E-003  
  425.00  7.4893E-003  
  425.50  7.9810E-003  
  426.00  8.5155E-003  
  426.50  9.0287E-003  
  427.00  9.5763E-003  
  427.50  1.0194E-002  
  428.00  1.0823E-002  
  428.50  1.1447E-002  
  429.00  1.2090E-002  
  429.50  1.2842E-002  
  430.00  1.3698E-002  
  430.50  1.4551E-002  
  431.00  1.5330E-002  
  431.50  1.6070E-002  
  432.00  1.6906E-002  
  432.50  1.7839E-002  
  433.00  1.8788E-002  
  433.50  1.9705E-002  
  434.00  2.0645E-002  
  434.50  2.1553E-002  
  435.00  2.2534E-002  
  435.50  2.3514E-002  
  436.00  2.4558E-002  
  436.50  2.5685E-002  
  437.00  2.6909E-002  
  437.50  2.8125E-002  
  438.00  2.9327E-002  
  438.50  3.0384E-002  
  439.00  3.1573E-002  
  439.50  3.2911E-002  
  440.00  3.4374E-002  
  440.50  3.6027E-002  
  441.00  3.7489E-002  
  441.50  3.8990E-002  
  442.00  4.0521E-002  
  442.50  4.2058E-002  
  443.00  4.3785E-002  
  443.50  4.5509E-002  
  444.00  4.7299E-002  
  444.50  4.9185E-002  
  445.00  5.0957E-002  
  445.50  5.2770E-002  
  446.00  5.4602E-002  
  446.50  5.6389E-002  
  447.00  5.8112E-002  
  447.50  5.9716E-002  
  448.00  6.1027E-002  
  448.50  6.2177E-002  
  449.00  6.3317E-002  
  449.50  6.4373E-002  
  450.00  6.5394E-002  
  450.50  6.6221E-002  
  451.00  6.6649E-002  
  451.50  6.6796E-002  
  452.00  6.6768E-002  
  452.50  6.6596E-002  
  453.00  6.6099E-002  
  453.50  6.5273E-002  
  454.00  6.4165E-002  
  454.50  6.3031E-002  
  455.00  6.2044E-002  
  455.50  6.0781E-002  
  456.00  5.9395E-002  
  456.50  5.7806E-002  
  457.00  5.6215E-002  
  457.50  5.4578E-002  
  458.00  5.2725E-002  
  458.50  5.0856E-002  
  459.00  4.8993E-002  
  459.50  4.7230E-002  
  460.00  4.5609E-002  
  460.50  4.4150E-002  
  461.00  4.2764E-002  
  461.50  4.1384E-002  
  462.00  4.0021E-002  
  462.50  3.8676E-002  
  463.00  3.7468E-002  
  463.50  3.6354E-002  
  464.00  3.5265E-002  
  464.50  3.4173E-002  
  465.00  3.3144E-002  
  465.50  3.2323E-002  
  466.00  3.1597E-002  
  466.50  3.0859E-002  
  467.00  3.0047E-002  
  467.50  2.9326E-002  
  468.00  2.8608E-002  
  468.50  2.7984E-002  
  469.00  2.7333E-002  
  469.50  2.6684E-002  
  470.00  2.6156E-002  
  470.50  2.5589E-002  
  471.00  2.5060E-002  
  471.50  2.4488E-002  
  472.00  2.3945E-002  
  472.50  2.3456E-002  
  473.00  2.2954E-002  
  473.50  2.2431E-002  
  474.00  2.1845E-002  
  474.50  2.1306E-002  
  475.00  2.0782E-002  
  475.50  2.0375E-002  
  476.00  1.9972E-002  
  476.50  1.9568E-002  
  477.00  1.9121E-002  
  477.50  1.8717E-002  
  478.00  1.8315E-002  
  478.50  1.8036E-002  
  479.00  1.7739E-002  
  479.50  1.7531E-002  
  480.00  1.7276E-002  
  480.50  1.6978E-002  
  481.00  1.6715E-002  
  481.50  1.6409E-002  
  482.00  1.6252E-002  
  482.50  1.6135E-002  
  483.00  1.6033E-002  
  483.50  1.5927E-002  
  484.00  1.5816E-002  
  484.50  1.5730E-002  
  485.00  1.5660E-002  
  485.50  1.5547E-002  
  486.00  1.5477E-002  
  486.50  1.5431E-002  
  487.00  1.5393E-002  
  487.50  1.5402E-002  
  488.00  1.5386E-002  
  488.50  1.5395E-002  
  489.00  1.5421E-002  
  489.50  1.5482E-002  
  490.00  1.5565E-002  
  490.50  1.5629E-002  
  491.00  1.5723E-002  
  491.50  1.5809E-002  
  492.00  1.5967E-002  
  492.50  1.6134E-002  
  493.00  1.6318E-002  
  493.50  1.6506E-002  
  494.00  1.6701E-002  
  494.50  1.6978E-002  
  495.00  1.7264E-002  
  495.50  1.7552E-002  
  496.00  1.7772E-002  
  496.50  1.7994E-002  
  497.00  1.8284E-002  
  497.50  1.8650E-002  
  498.00  1.9029E-002  
  498.50  1.9384E-002  
  499.00  1.9741E-002  
  499.50  2.0094E-002  
  500.00  2.0500E-002  
  500.50  2.0908E-002  
  501.00  2.1368E-002  
  501.50  2.1879E-002  
  502.00  2.2414E-002  
  502.50  2.2914E-002  
  503.00  2.3389E-002  
  503.50  2.3864E-002  
  504.00  2.4372E-002  
  504.50  2.4933E-002  
  505.00  2.5490E-002  
  505.50  2.6099E-002  
  506.00  2.6712E-002  
  506.50  2.7287E-002  
  507.00  2.7881E-002  
  507.50  2.8475E-002  
  508.00  2.9080E-002  
  508.50  2.9685E-002  
  509.00  3.0296E-002  
  509.50  3.0889E-002  
  510.00  3.1531E-002  
  510.50  3.2061E-002  
  511.00  3.2656E-002  
  511.50  3.3245E-002  
  512.00  3.3910E-002  
  512.50  3.4607E-002  
  513.00  3.5276E-002  
  513.50  3.5956E-002  
  514.00  3.6583E-002  
  514.50  3.7175E-002  
  515.00  3.7725E-002  
  515.50  3.8388E-002  
  516.00  3.9096E-002  
  516.50  3.9836E-002  
  517.00  4.0533E-002  
  517.50  4.1152E-002  
  518.00  4.1786E-002  
  518.50  4.2440E-002  
  519.00  4.3060E-002  
  519.50  4.3602E-002  
  520.00  4.4111E-002  
  520.50  4.4626E-002  
  521.00  4.5185E-002  
  521.50  4.5775E-002  
  522.00  4.6338E-002  
  522.50  4.6898E-002  
  523.00  4.7467E-002  
  523.50  4.8064E-002  
  524.00  4.8662E-002  
  524.50  4.9242E-002  
  525.00  4.9750E-002  
  525.50  5.0251E-002  
  526.00  5.0783E-002  
  526.50  5.1298E-002  
  527.00  5.1819E-002  
  527.50  5.2276E-002  
  528.00  5.2748E-002  
  528.50  5.3309E-002  
  529.00  5.3795E-002  
  529.50  5.4329E-002  
  530.00  5.4815E-002  
  530.50  5.5233E-002  
  531.00  5.5669E-002  
  531.50  5.6039E-002  
  532.00  5.6523E-002  
  532.50  5.7027E-002  
  533.00  5.7473E-002  
  533.50  5.7836E-002  
  534.00  5.8184E-002  
  534.50  5.8656E-002  
  535.00  5.9137E-002  
  535.50  5.9499E-002  
  536.00  5.9753E-002  
  536.50  6.0024E-002  
  537.00  6.0382E-002  
  537.50  6.0802E-002  
  538.00  6.1162E-002  
  538.50  6.1580E-002  
  539.00  6.1933E-002  
  539.50  6.2295E-002  
  540.00  6.2625E-002  
  540.50  6.2974E-002  
  541.00  6.3376E-002  
  541.50  6.3765E-002  
  542.00  6.4163E-002  
  542.50  6.4500E-002  
  543.00  6.4781E-002  
  543.50  6.5003E-002  
  544.00  6.5274E-002  
  544.50  6.5514E-002  
  545.00  6.5774E-002  
  545.50  6.6033E-002  
  546.00  6.6278E-002  
  546.50  6.6639E-002  
  547.00  6.6896E-002  
  547.50  6.7179E-002  
  548.00  6.7462E-002  
  548.50  6.7787E-002  
  549.00  6.8110E-002  
  549.50  6.8402E-002  
  550.00  6.8632E-002  
  550.50  6.8860E-002  
  551.00  6.9047E-002  
  551.50  6.9231E-002  
  552.00  6.9491E-002  
  552.50  6.9833E-002  
  553.00  7.0078E-002  
  553.50  7.0349E-002  
  554.00  7.0632E-002  
  554.50  7.1035E-002  
  555.00  7.1291E-002  
  555.50  7.1471E-002  
  556.00  7.1550E-002  
  556.50  7.1724E-002  
  557.00  7.1897E-002  
  557.50  7.2132E-002  
  558.00  7.2475E-002  
  558.50  7.2818E-002  
  559.00  7.3040E-002  
  559.50  7.3190E-002  
  560.00  7.3439E-002  
  560.50  7.3704E-002  
  561.00  7.3901E-002  
  561.50  7.3966E-002  
  562.00  7.4086E-002  
  562.50  7.4299E-002  
  563.00  7.4540E-002  
  563.50  7.4724E-002  
  564.00  7.4833E-002  
  564.50  7.4968E-002  
  565.00  7.5109E-002  
  565.50  7.5229E-002  
  566.00  7.5357E-002  
  566.50  7.5557E-002  
  567.00  7.5795E-002  
  567.50  7.6023E-002  
  568.00  7.6202E-002  
  568.50  7.6271E-002  
  569.00  7.6303E-002  
  569.50  7.6362E-002  
  570.00  7.6401E-002  
  570.50  7.6504E-002  
  571.00  7.6555E-002  
  571.50  7.6602E-002  
  572.00  7.6747E-002  
  572.50  7.6786E-002  
  573.00  7.6962E-002  
  573.50  7.7069E-002  
  574.00  7.7199E-002  
  574.50  7.7272E-002  
  575.00  7.7416E-002  
  575.50  7.7559E-002  
  576.00  7.7745E-002  
  576.50  7.7765E-002  
  577.00  7.7827E-002  
  577.50  7.7968E-002  
  578.00  7.8108E-002  
  578.50  7.8236E-002  
  579.00  7.8278E-002  
  579.50  7.8299E-002  
  580.00  7.8311E-002  
  580.50  7.8263E-002  
  581.00  7.8228E-002  
  581.50  7.8182E-002  
  582.00  7.8154E-002  
  582.50  7.8207E-002  
  583.00  7.8270E-002  
  583.50  7.8419E-002  
  584.00  7.8504E-002  
  584.50  7.8517E-002  
  585.00  7.8448E-002  
  585.50  7.8384E-002  
  586.00  7.8317E-002  
  586.50  7.8284E-002  
  587.00  7.8179E-002  
  587.50  7.8098E-002  
  588.00  7.8067E-002  
  588.50  7.8057E-002  
  589.00  7.8028E-002  
  589.50  7.7982E-002  
  590.00  7.7946E-002  
  590.50  7.7911E-002  
  591.00  7.7817E-002  
  591.50  7.7717E-002  
  592.00  7.7531E-002  
  592.50  7.7393E-002  
  593.00  7.7267E-002  
  593.50  7.7183E-002  
  594.00  7.7173E-002  
  594.50  7.7104E-002  
  595.00  7.7122E-002  
  595.50  7.6958E-002  
  596.00  7.6788E-002  
  596.50  7.6594E-002  
  597.00  7.6486E-002  
  597.50  7.6288E-002  
  598.00  7.6069E-002  
  598.50  7.5802E-002  
  599.00  7.5732E-002  
  599.50  7.5625E-002  
  600.00  7.5460E-002  
  600.50  7.5296E-002  
  601.00  7.5036E-002  
  601.50  7.4821E-002  
  602.00  7.4427E-002  
  602.50  7.4152E-002  
  603.00  7.3971E-002  
  603.50  7.3806E-002  
  604.00  7.3569E-002  
  604.50  7.3221E-002  
  605.00  7.3003E-002  
  605.50  7.2795E-002  
  606.00  7.2568E-002  
  606.50  7.2302E-002  
  607.00  7.1941E-002  
  607.50  7.1620E-002  
  608.00  7.1328E-002  
  608.50  7.1112E-002  
  609.00  7.0831E-002  
  609.50  7.0482E-002  
  610.00  7.0169E-002  
  610.50  6.9941E-002  
  611.00  6.9759E-002  
  611.50  6.9448E-002  
  612.00  6.9084E-002  
  612.50  6.8692E-002  
  613.00  6.8340E-002  
  613.50  6.8018E-002  
  614.00  6.7792E-002  
  614.50  6.7537E-002  
  615.00  6.7263E-002  
  615.50  6.6737E-002  
  616.00  6.6156E-002  
  616.50  6.5720E-002  
  617.00  6.5446E-002  
  617.50  6.5257E-002  
  618.00  6.5002E-002  
  618.50  6.4601E-002  
  619.00  6.4118E-002  
  619.50  6.3658E-002  
  620.00  6.3235E-002  
  620.50  6.2818E-002  
  621.00  6.2437E-002  
  621.50  6.2126E-002  
  622.00  6.1754E-002  
  622.50  6.1291E-002  
  623.00  6.0753E-002  
  623.50  6.0362E-002  
  624.00  6.0046E-002  
  624.50  5.9621E-002  
  625.00  5.9197E-002  
  625.50  5.8926E-002  
  626.00  5.8663E-002  
  626.50  5.8364E-002  
  627.00  5.7887E-002  
  627.50  5.7400E-002  
  628.00  5.6984E-002  
  628.50  5.6508E-002  
  629.00  5.6097E-002  
  629.50  5.5666E-002  
  630.00  5.5292E-002  
  630.50  5.4895E-002  
  631.00  5.4474E-002  
  631.50  5.4027E-002  
  632.00  5.3537E-002  
  632.50  5.2935E-002  
  633.00  5.2416E-002  
  633.50  5.1978E-002  
  634.00  5.1773E-002  
  634.50  5.1519E-002  
  635.00  5.1199E-002  
  635.50  5.0707E-002  
  636.00  5.0166E-002  
  636.50  4.9671E-002  
  637.00  4.9261E-002  
  637.50  4.8855E-002  
  638.00  4.8428E-002  
  638.50  4.8044E-002  
  639.00  4.7719E-002  
  639.50  4.7337E-002  
  640.00  4.6856E-002  
  640.50  4.6325E-002  
  641.00  4.5890E-002  
  641.50  4.5520E-002  
  642.00  4.5133E-002  
  642.50  4.4734E-002  
  643.00  4.4301E-002  
  643.50  4.3880E-002  
  644.00  4.3446E-002  
  644.50  4.3027E-002  
  645.00  4.2701E-002  
  645.50  4.2434E-002  
  646.00  4.2092E-002  
  646.50  4.1524E-002  
  647.00  4.0976E-002  
  647.50  4.0484E-002  
  648.00  4.0174E-002  
  648.50  3.9784E-002  
  649.00  3.9381E-002  
  649.50  3.8889E-002  
  650.00  3.8388E-002  
  650.50  3.8019E-002  
  651.00  3.7764E-002  
  651.50  3.7495E-002  
  652.00  3.7124E-002  
  652.50  3.6741E-002  
  653.00  3.6380E-002  
  653.50  3.5936E-002  
  654.00  3.5487E-002  
  654.50  3.5085E-002  
  655.00  3.4724E-002  
  655.50  3.4422E-002  
  656.00  3.4051E-002  
  656.50  3.3636E-002  
  657.00  3.3158E-002  
  657.50  3.2751E-002  
  658.00  3.2376E-002  
  658.50  3.2078E-002  
  659.00  3.1754E-002  
  659.50  3.1501E-002  
  660.00  3.1188E-002  
  660.50  3.0793E-002  
  661.00  3.0358E-002  
  661.50  2.9910E-002  
  662.00  2.9486E-002  
  662.50  2.9112E-002  
  663.00  2.8832E-002  
  663.50  2.8626E-002  
  664.00  2.8344E-002  
  664.50  2.7930E-002  
  665.00  2.7503E-002  
  665.50  2.7108E-002  
  666.00  2.6765E-002  
  666.50  2.6482E-002  
  667.00  2.6107E-002  
  667.50  2.5751E-002  
  668.00  2.5348E-002  
  668.50  2.5082E-002  
  669.00  2.4929E-002  
  669.50  2.4724E-002  
  670.00  2.4506E-002  
  670.50  2.4132E-002  
  671.00  2.3815E-002  
  671.50  2.3426E-002  
  672.00  2.2974E-002  
  672.50  2.2630E-002  
  673.00  2.2404E-002  
  673.50  2.2230E-002  
  674.00  2.1825E-002  
  674.50  2.1446E-002  
  675.00  2.1208E-002  
  675.50  2.1170E-002  
  676.00  2.1052E-002  
  676.50  2.0815E-002  
  677.00  2.0413E-002  
  677.50  2.0108E-002  
  678.00  1.9858E-002  
  678.50  1.9733E-002  
  679.00  1.9628E-002  
  679.50  1.9424E-002  
  680.00  1.9175E-002  
