
# From lspdd.org
# 
# Name: INC Rona A19 Domestique
# Indice spectral Valeur 
# MSI 0.26 
# SLI 0.48 
# IPI 0.97 
# Pourcentage de bleu 11.0 
# Caractéristique Valeur 
# CCT calculée (K) 2502 
# CCT du fabricant (K) 2450 
# Tension (V) 130 
# Puissance (W) 100.0 
# Efficacité lumineuse (Lum/W) 
#
# Image: '/app/system/img_2s/2475/medium_image2.JPG?1413485823'
# Image: '/app/system/img_1s/2475/medium_image1.JPG?1413485823'
# 

  273.00  0.0000E+000  
  273.50  0.0000E+000  
  274.00  0.0000E+000  
  274.50  0.0000E+000  
  275.00  0.0000E+000  
  275.50  0.0000E+000  
  276.00  0.0000E+000  
  276.50  0.0000E+000  
  277.00  0.0000E+000  
  277.50  0.0000E+000  
  278.00  0.0000E+000  
  278.50  0.0000E+000  
  279.00  0.0000E+000  
  279.50  0.0000E+000  
  280.00  0.0000E+000  
  280.50  0.0000E+000  
  281.00  0.0000E+000  
  281.50  0.0000E+000  
  282.00  0.0000E+000  
  282.50  0.0000E+000  
  283.00  0.0000E+000  
  283.50  0.0000E+000  
  284.00  0.0000E+000  
  284.50  0.0000E+000  
  285.00  0.0000E+000  
  285.50  0.0000E+000  
  286.00  0.0000E+000  
  286.50  0.0000E+000  
  287.00  0.0000E+000  
  287.50  0.0000E+000  
  288.00  0.0000E+000  
  288.50  0.0000E+000  
  289.00  0.0000E+000  
  289.50  0.0000E+000  
  290.00  0.0000E+000  
  290.50  0.0000E+000  
  291.00  0.0000E+000  
  291.50  0.0000E+000  
  292.00  0.0000E+000  
  292.50  0.0000E+000  
  293.00  0.0000E+000  
  293.50  0.0000E+000  
  294.00  0.0000E+000  
  294.50  0.0000E+000  
  295.00  0.0000E+000  
  295.50  0.0000E+000  
  296.00  0.0000E+000  
  296.50  0.0000E+000  
  297.00  0.0000E+000  
  297.50  0.0000E+000  
  298.00  0.0000E+000  
  298.50  0.0000E+000  
  299.00  0.0000E+000  
  299.50  0.0000E+000  
  300.00  4.8873E-005  
  300.50  7.9330E-005  
  301.00  2.6336E-005  
  301.50  0.0000E+000  
  302.00  0.0000E+000  
  302.50  1.4030E-005  
  303.00  6.0321E-006  
  303.50  4.4158E-005  
  304.00  9.5869E-005  
  304.50  5.3210E-005  
  305.00  5.4157E-005  
  305.50  5.5591E-005  
  306.00  4.0885E-005  
  306.50  6.6132E-005  
  307.00  5.9794E-005  
  307.50  8.5766E-005  
  308.00  8.9320E-005  
  308.50  1.3574E-004  
  309.00  1.7594E-004  
  309.50  1.9464E-004  
  310.00  2.3538E-004  
  310.50  2.4819E-004  
  311.00  2.3793E-004  
  311.50  1.5438E-004  
  312.00  3.1628E-005  
  312.50  0.0000E+000  
  313.00  0.0000E+000  
  313.50  0.0000E+000  
  314.00  0.0000E+000  
  314.50  0.0000E+000  
  315.00  0.0000E+000  
  315.50  0.0000E+000  
  316.00  5.1326E-006  
  316.50  5.2279E-005  
  317.00  7.7871E-005  
  317.50  1.0207E-004  
  318.00  9.4329E-005  
  318.50  4.3315E-005  
  319.00  6.1386E-005  
  319.50  5.4892E-005  
  320.00  7.6525E-005  
  320.50  1.2852E-004  
  321.00  1.0921E-004  
  321.50  7.3579E-005  
  322.00  4.6920E-005  
  322.50  0.0000E+000  
  323.00  0.0000E+000  
  323.50  0.0000E+000  
  324.00  4.6783E-005  
  324.50  1.2361E-004  
  325.00  1.3642E-004  
  325.50  1.2282E-004  
  326.00  5.3067E-005  
  326.50  5.8166E-005  
  327.00  1.2860E-004  
  327.50  1.6687E-004  
  328.00  2.2168E-004  
  328.50  2.4615E-004  
  329.00  2.2998E-004  
  329.50  2.1834E-004  
  330.00  1.7072E-004  
  330.50  1.2064E-004  
  331.00  1.3568E-004  
  331.50  1.7168E-004  
  332.00  2.2076E-004  
  332.50  2.5268E-004  
  333.00  2.0960E-004  
  333.50  1.8011E-004  
  334.00  1.4291E-004  
  334.50  1.4999E-004  
  335.00  1.6127E-004  
  335.50  1.8007E-004  
  336.00  1.6879E-004  
  336.50  1.3258E-004  
  337.00  1.1572E-004  
  337.50  1.4099E-004  
  338.00  2.0529E-004  
  338.50  2.3530E-004  
  339.00  2.9088E-004  
  339.50  3.3245E-004  
  340.00  3.9702E-004  
  340.50  4.4552E-004  
  341.00  4.3245E-004  
  341.50  3.8673E-004  
  342.00  3.4523E-004  
  342.50  3.4066E-004  
  343.00  3.7340E-004  
  343.50  4.0110E-004  
  344.00  3.9104E-004  
  344.50  3.4874E-004  
  345.00  2.9843E-004  
  345.50  2.8916E-004  
  346.00  3.5313E-004  
  346.50  4.3598E-004  
  347.00  4.5985E-004  
  347.50  4.2564E-004  
  348.00  3.6459E-004  
  348.50  3.1922E-004  
  349.00  3.2582E-004  
  349.50  3.3742E-004  
  350.00  3.9189E-004  
  350.50  3.7329E-004  
  351.00  3.6255E-004  
  351.50  3.9339E-004  
  352.00  4.2494E-004  
  352.50  4.9759E-004  
  353.00  5.5724E-004  
  353.50  5.7146E-004  
  354.00  5.7868E-004  
  354.50  5.4144E-004  
  355.00  4.9944E-004  
  355.50  4.8551E-004  
  356.00  4.7328E-004  
  356.50  4.8675E-004  
  357.00  5.2448E-004  
  357.50  5.5283E-004  
  358.00  6.1381E-004  
  358.50  6.7667E-004  
  359.00  6.8588E-004  
  359.50  6.9276E-004  
  360.00  7.1560E-004  
  360.50  7.0790E-004  
  361.00  7.0894E-004  
  361.50  6.7181E-004  
  362.00  6.1952E-004  
  362.50  6.4634E-004  
  363.00  7.6196E-004  
  363.50  8.5018E-004  
  364.00  9.3152E-004  
  364.50  9.0426E-004  
  365.00  8.2511E-004  
  365.50  7.7966E-004  
  366.00  7.2420E-004  
  366.50  7.4032E-004  
  367.00  7.7915E-004  
  367.50  8.4744E-004  
  368.00  8.9747E-004  
  368.50  9.3674E-004  
  369.00  9.4517E-004  
  369.50  9.3056E-004  
  370.00  9.3216E-004  
  370.50  9.6889E-004  
  371.00  1.0332E-003  
  371.50  1.0756E-003  
  372.00  1.1128E-003  
  372.50  1.0641E-003  
  373.00  1.0267E-003  
  373.50  1.0229E-003  
  374.00  1.0500E-003  
  374.50  1.1288E-003  
  375.00  1.1968E-003  
  375.50  1.2091E-003  
  376.00  1.2346E-003  
  376.50  1.2220E-003  
  377.00  1.2321E-003  
  377.50  1.2217E-003  
  378.00  1.1760E-003  
  378.50  1.1163E-003  
  379.00  1.0988E-003  
  379.50  1.1198E-003  
  380.00  1.2000E-003  
  380.50  1.2714E-003  
  381.00  1.3227E-003  
  381.50  1.3220E-003  
  382.00  1.3387E-003  
  382.50  1.3768E-003  
  383.00  1.4088E-003  
  383.50  1.4083E-003  
  384.00  1.4094E-003  
  384.50  1.4229E-003  
  385.00  1.4542E-003  
  385.50  1.4608E-003  
  386.00  1.4619E-003  
  386.50  1.4467E-003  
  387.00  1.4442E-003  
  387.50  1.5066E-003  
  388.00  1.5132E-003  
  388.50  1.5304E-003  
  389.00  1.5963E-003  
  389.50  1.6456E-003  
  390.00  1.7421E-003  
  390.50  1.8661E-003  
  391.00  1.8954E-003  
  391.50  1.9079E-003  
  392.00  1.9138E-003  
  392.50  1.8893E-003  
  393.00  1.9115E-003  
  393.50  1.9368E-003  
  394.00  1.9228E-003  
  394.50  1.9072E-003  
  395.00  1.8623E-003  
  395.50  1.8242E-003  
  396.00  1.8430E-003  
  396.50  1.9048E-003  
  397.00  1.9751E-003  
  397.50  2.0363E-003  
  398.00  2.0679E-003  
  398.50  2.0797E-003  
  399.00  2.1355E-003  
  399.50  2.2054E-003  
  400.00  2.2716E-003  
  400.50  2.2940E-003  
  401.00  2.3197E-003  
  401.50  2.3255E-003  
  402.00  2.3254E-003  
  402.50  2.3248E-003  
  403.00  2.2843E-003  
  403.50  2.2954E-003  
  404.00  2.3401E-003  
  404.50  2.4132E-003  
  405.00  2.4905E-003  
  405.50  2.5938E-003  
  406.00  2.6783E-003  
  406.50  2.7146E-003  
  407.00  2.7000E-003  
  407.50  2.7031E-003  
  408.00  2.6990E-003  
  408.50  2.7399E-003  
  409.00  2.7558E-003  
  409.50  2.7974E-003  
  410.00  2.8627E-003  
  410.50  2.9304E-003  
  411.00  2.9867E-003  
  411.50  3.0057E-003  
  412.00  3.0335E-003  
  412.50  3.0205E-003  
  413.00  3.0572E-003  
  413.50  3.0762E-003  
  414.00  3.0942E-003  
  414.50  3.1300E-003  
  415.00  3.1587E-003  
  415.50  3.1568E-003  
  416.00  3.2010E-003  
  416.50  3.2735E-003  
  417.00  3.3822E-003  
  417.50  3.4480E-003  
  418.00  3.3900E-003  
  418.50  3.4043E-003  
  419.00  3.3867E-003  
  419.50  3.4264E-003  
  420.00  3.4777E-003  
  420.50  3.4660E-003  
  421.00  3.4873E-003  
  421.50  3.5244E-003  
  422.00  3.5388E-003  
  422.50  3.5859E-003  
  423.00  3.6835E-003  
  423.50  3.7703E-003  
  424.00  3.8188E-003  
  424.50  3.8348E-003  
  425.00  3.8478E-003  
  425.50  3.8405E-003  
  426.00  3.8621E-003  
  426.50  3.8554E-003  
  427.00  3.8875E-003  
  427.50  3.9434E-003  
  428.00  4.0187E-003  
  428.50  4.0364E-003  
  429.00  4.0677E-003  
  429.50  4.1478E-003  
  430.00  4.2343E-003  
  430.50  4.3229E-003  
  431.00  4.3530E-003  
  431.50  4.4067E-003  
  432.00  4.4792E-003  
  432.50  4.5571E-003  
  433.00  4.5960E-003  
  433.50  4.5740E-003  
  434.00  4.5884E-003  
  434.50  4.6521E-003  
  435.00  4.7315E-003  
  435.50  4.7990E-003  
  436.00  4.8142E-003  
  436.50  4.8428E-003  
  437.00  4.8880E-003  
  437.50  4.9399E-003  
  438.00  4.9641E-003  
  438.50  4.9423E-003  
  439.00  4.9469E-003  
  439.50  5.0455E-003  
  440.00  5.1359E-003  
  440.50  5.2202E-003  
  441.00  5.2407E-003  
  441.50  5.2153E-003  
  442.00  5.2815E-003  
  442.50  5.3160E-003  
  443.00  5.3425E-003  
  443.50  5.3788E-003  
  444.00  5.4276E-003  
  444.50  5.5572E-003  
  445.00  5.6645E-003  
  445.50  5.7514E-003  
  446.00  5.7719E-003  
  446.50  5.7926E-003  
  447.00  5.7829E-003  
  447.50  5.7849E-003  
  448.00  5.8431E-003  
  448.50  5.9240E-003  
  449.00  6.0218E-003  
  449.50  6.0932E-003  
  450.00  6.1325E-003  
  450.50  6.1419E-003  
  451.00  6.1328E-003  
  451.50  6.1596E-003  
  452.00  6.1960E-003  
  452.50  6.3374E-003  
  453.00  6.4095E-003  
  453.50  6.4601E-003  
  454.00  6.5023E-003  
  454.50  6.5681E-003  
  455.00  6.7016E-003  
  455.50  6.7517E-003  
  456.00  6.7572E-003  
  456.50  6.7424E-003  
  457.00  6.7734E-003  
  457.50  6.8486E-003  
  458.00  6.8622E-003  
  458.50  6.8958E-003  
  459.00  6.9218E-003  
  459.50  6.9695E-003  
  460.00  7.0575E-003  
  460.50  7.1025E-003  
  461.00  7.1720E-003  
  461.50  7.2486E-003  
  462.00  7.3454E-003  
  462.50  7.4664E-003  
  463.00  7.5309E-003  
  463.50  7.5743E-003  
  464.00  7.5433E-003  
  464.50  7.5331E-003  
  465.00  7.5832E-003  
  465.50  7.7280E-003  
  466.00  7.8596E-003  
  466.50  7.8677E-003  
  467.00  7.8696E-003  
  467.50  7.9532E-003  
  468.00  8.0372E-003  
  468.50  8.1363E-003  
  469.00  8.1439E-003  
  469.50  8.1928E-003  
  470.00  8.2937E-003  
  470.50  8.3698E-003  
  471.00  8.4756E-003  
  471.50  8.5063E-003  
  472.00  8.5256E-003  
  472.50  8.5813E-003  
  473.00  8.6564E-003  
  473.50  8.7502E-003  
  474.00  8.8328E-003  
  474.50  8.8897E-003  
  475.00  8.9715E-003  
  475.50  9.0664E-003  
  476.00  9.1386E-003  
  476.50  9.2226E-003  
  477.00  9.2772E-003  
  477.50  9.3412E-003  
  478.00  9.3483E-003  
  478.50  9.3978E-003  
  479.00  9.4503E-003  
  479.50  9.5380E-003  
  480.00  9.6098E-003  
  480.50  9.6525E-003  
  481.00  9.7626E-003  
  481.50  9.8183E-003  
  482.00  9.9117E-003  
  482.50  9.9729E-003  
  483.00  9.9966E-003  
  483.50  1.0043E-002  
  484.00  1.0082E-002  
  484.50  1.0190E-002  
  485.00  1.0316E-002  
  485.50  1.0406E-002  
  486.00  1.0446E-002  
  486.50  1.0489E-002  
  487.00  1.0540E-002  
  487.50  1.0616E-002  
  488.00  1.0694E-002  
  488.50  1.0758E-002  
  489.00  1.0852E-002  
  489.50  1.0965E-002  
  490.00  1.1041E-002  
  490.50  1.1108E-002  
  491.00  1.1176E-002  
  491.50  1.1240E-002  
  492.00  1.1320E-002  
  492.50  1.1417E-002  
  493.00  1.1557E-002  
  493.50  1.1687E-002  
  494.00  1.1784E-002  
  494.50  1.1864E-002  
  495.00  1.1948E-002  
  495.50  1.2052E-002  
  496.00  1.2139E-002  
  496.50  1.2186E-002  
  497.00  1.2258E-002  
  497.50  1.2318E-002  
  498.00  1.2404E-002  
  498.50  1.2509E-002  
  499.00  1.2630E-002  
  499.50  1.2751E-002  
  500.00  1.2853E-002  
  500.50  1.2939E-002  
  501.00  1.3003E-002  
  501.50  1.3098E-002  
  502.00  1.3181E-002  
  502.50  1.3289E-002  
  503.00  1.3405E-002  
  503.50  1.3510E-002  
  504.00  1.3665E-002  
  504.50  1.3798E-002  
  505.00  1.3937E-002  
  505.50  1.4036E-002  
  506.00  1.4129E-002  
  506.50  1.4248E-002  
  507.00  1.4390E-002  
  507.50  1.4513E-002  
  508.00  1.4585E-002  
  508.50  1.4657E-002  
  509.00  1.4777E-002  
  509.50  1.4908E-002  
  510.00  1.5052E-002  
  510.50  1.5120E-002  
  511.00  1.5259E-002  
  511.50  1.5407E-002  
  512.00  1.5562E-002  
  512.50  1.5683E-002  
  513.00  1.5790E-002  
  513.50  1.5932E-002  
  514.00  1.6076E-002  
  514.50  1.6186E-002  
  515.00  1.6269E-002  
  515.50  1.6390E-002  
  516.00  1.6526E-002  
  516.50  1.6698E-002  
  517.00  1.6874E-002  
  517.50  1.7024E-002  
  518.00  1.7178E-002  
  518.50  1.7302E-002  
  519.00  1.7438E-002  
  519.50  1.7551E-002  
  520.00  1.7655E-002  
  520.50  1.7774E-002  
  521.00  1.7909E-002  
  521.50  1.8101E-002  
  522.00  1.8247E-002  
  522.50  1.8389E-002  
  523.00  1.8476E-002  
  523.50  1.8591E-002  
  524.00  1.8753E-002  
  524.50  1.8953E-002  
  525.00  1.9116E-002  
  525.50  1.9244E-002  
  526.00  1.9341E-002  
  526.50  1.9501E-002  
  527.00  1.9677E-002  
  527.50  1.9784E-002  
  528.00  1.9873E-002  
  528.50  1.9995E-002  
  529.00  2.0185E-002  
  529.50  2.0395E-002  
  530.00  2.0542E-002  
  530.50  2.0664E-002  
  531.00  2.0822E-002  
  531.50  2.0986E-002  
  532.00  2.1161E-002  
  532.50  2.1319E-002  
  533.00  2.1451E-002  
  533.50  2.1576E-002  
  534.00  2.1684E-002  
  534.50  2.1822E-002  
  535.00  2.1943E-002  
  535.50  2.2056E-002  
  536.00  2.2161E-002  
  536.50  2.2317E-002  
  537.00  2.2525E-002  
  537.50  2.2709E-002  
  538.00  2.2897E-002  
  538.50  2.3070E-002  
  539.00  2.3215E-002  
  539.50  2.3343E-002  
  540.00  2.3467E-002  
  540.50  2.3643E-002  
  541.00  2.3838E-002  
  541.50  2.4041E-002  
  542.00  2.4201E-002  
  542.50  2.4321E-002  
  543.00  2.4448E-002  
  543.50  2.4493E-002  
  544.00  2.4621E-002  
  544.50  2.4749E-002  
  545.00  2.4879E-002  
  545.50  2.5053E-002  
  546.00  2.5219E-002  
  546.50  2.5440E-002  
  547.00  2.5599E-002  
  547.50  2.5727E-002  
  548.00  2.5880E-002  
  548.50  2.6037E-002  
  549.00  2.6272E-002  
  549.50  2.6443E-002  
  550.00  2.6605E-002  
  550.50  2.6737E-002  
  551.00  2.6877E-002  
  551.50  2.7035E-002  
  552.00  2.7186E-002  
  552.50  2.7343E-002  
  553.00  2.7466E-002  
  553.50  2.7635E-002  
  554.00  2.7772E-002  
  554.50  2.7994E-002  
  555.00  2.8165E-002  
  555.50  2.8352E-002  
  556.00  2.8448E-002  
  556.50  2.8555E-002  
  557.00  2.8671E-002  
  557.50  2.8819E-002  
  558.00  2.8988E-002  
  558.50  2.9211E-002  
  559.00  2.9449E-002  
  559.50  2.9699E-002  
  560.00  2.9910E-002  
  560.50  3.0036E-002  
  561.00  3.0117E-002  
  561.50  3.0158E-002  
  562.00  3.0322E-002  
  562.50  3.0479E-002  
  563.00  3.0595E-002  
  563.50  3.0664E-002  
  564.00  3.0789E-002  
  564.50  3.0955E-002  
  565.00  3.1127E-002  
  565.50  3.1250E-002  
  566.00  3.1347E-002  
  566.50  3.1549E-002  
  567.00  3.1730E-002  
  567.50  3.1910E-002  
  568.00  3.2077E-002  
  568.50  3.2221E-002  
  569.00  3.2370E-002  
  569.50  3.2473E-002  
  570.00  3.2515E-002  
  570.50  3.2651E-002  
  571.00  3.2889E-002  
  571.50  3.3070E-002  
  572.00  3.3223E-002  
  572.50  3.3280E-002  
  573.00  3.3402E-002  
  573.50  3.3568E-002  
  574.00  3.3758E-002  
  574.50  3.3884E-002  
  575.00  3.4043E-002  
  575.50  3.4218E-002  
  576.00  3.4440E-002  
  576.50  3.4618E-002  
  577.00  3.4803E-002  
  577.50  3.4962E-002  
  578.00  3.5123E-002  
  578.50  3.5208E-002  
  579.00  3.5248E-002  
  579.50  3.5355E-002  
  580.00  3.5461E-002  
  580.50  3.5636E-002  
  581.00  3.5837E-002  
  581.50  3.5949E-002  
  582.00  3.6061E-002  
  582.50  3.6149E-002  
  583.00  3.6206E-002  
  583.50  3.6315E-002  
  584.00  3.6386E-002  
  584.50  3.6626E-002  
  585.00  3.6842E-002  
  585.50  3.7051E-002  
  586.00  3.7180E-002  
  586.50  3.7358E-002  
  587.00  3.7489E-002  
  587.50  3.7598E-002  
  588.00  3.7692E-002  
  588.50  3.7824E-002  
  589.00  3.8049E-002  
  589.50  3.8237E-002  
  590.00  3.8423E-002  
  590.50  3.8566E-002  
  591.00  3.8642E-002  
  591.50  3.8732E-002  
  592.00  3.8834E-002  
  592.50  3.8970E-002  
  593.00  3.9093E-002  
  593.50  3.9164E-002  
  594.00  3.9308E-002  
  594.50  3.9414E-002  
  595.00  3.9566E-002  
  595.50  3.9671E-002  
  596.00  3.9930E-002  
  596.50  4.0209E-002  
  597.00  4.0404E-002  
  597.50  4.0478E-002  
  598.00  4.0489E-002  
  598.50  4.0616E-002  
  599.00  4.0817E-002  
  599.50  4.0990E-002  
  600.00  4.1016E-002  
  600.50  4.0953E-002  
  601.00  4.1036E-002  
  601.50  4.1173E-002  
  602.00  4.1403E-002  
  602.50  4.1543E-002  
  603.00  4.1654E-002  
  603.50  4.1732E-002  
  604.00  4.1810E-002  
  604.50  4.1889E-002  
  605.00  4.2065E-002  
  605.50  4.2246E-002  
  606.00  4.2401E-002  
  606.50  4.2588E-002  
  607.00  4.2724E-002  
  607.50  4.2830E-002  
  608.00  4.2907E-002  
  608.50  4.2995E-002  
  609.00  4.3162E-002  
  609.50  4.3223E-002  
  610.00  4.3326E-002  
  610.50  4.3431E-002  
  611.00  4.3559E-002  
  611.50  4.3622E-002  
  612.00  4.3663E-002  
  612.50  4.3699E-002  
  613.00  4.3856E-002  
  613.50  4.3994E-002  
  614.00  4.4132E-002  
  614.50  4.4285E-002  
  615.00  4.4410E-002  
  615.50  4.4557E-002  
  616.00  4.4620E-002  
  616.50  4.4712E-002  
  617.00  4.4862E-002  
  617.50  4.5030E-002  
  618.00  4.5168E-002  
  618.50  4.5286E-002  
  619.00  4.5379E-002  
  619.50  4.5436E-002  
  620.00  4.5532E-002  
  620.50  4.5592E-002  
  621.00  4.5720E-002  
  621.50  4.5809E-002  
  622.00  4.5845E-002  
  622.50  4.5878E-002  
  623.00  4.5897E-002  
  623.50  4.6067E-002  
  624.00  4.6235E-002  
  624.50  4.6425E-002  
  625.00  4.6670E-002  
  625.50  4.6887E-002  
  626.00  4.6929E-002  
  626.50  4.6915E-002  
  627.00  4.6998E-002  
  627.50  4.7159E-002  
  628.00  4.7233E-002  
  628.50  4.7136E-002  
  629.00  4.7171E-002  
  629.50  4.7338E-002  
  630.00  4.7486E-002  
  630.50  4.7638E-002  
  631.00  4.7739E-002  
  631.50  4.7894E-002  
  632.00  4.7929E-002  
  632.50  4.7942E-002  
  633.00  4.8022E-002  
  633.50  4.8244E-002  
  634.00  4.8488E-002  
  634.50  4.8736E-002  
  635.00  4.8850E-002  
  635.50  4.8845E-002  
  636.00  4.8868E-002  
  636.50  4.8921E-002  
  637.00  4.9052E-002  
  637.50  4.9137E-002  
  638.00  4.9279E-002  
  638.50  4.9443E-002  
  639.00  4.9569E-002  
  639.50  4.9772E-002  
  640.00  4.9888E-002  
  640.50  4.9963E-002  
  641.00  4.9919E-002  
  641.50  5.0009E-002  
  642.00  5.0174E-002  
  642.50  5.0304E-002  
  643.00  5.0344E-002  
  643.50  5.0369E-002  
  644.00  5.0470E-002  
  644.50  5.0585E-002  
  645.00  5.0692E-002  
  645.50  5.0721E-002  
  646.00  5.0750E-002  
  646.50  5.0800E-002  
  647.00  5.0930E-002  
  647.50  5.1174E-002  
  648.00  5.1400E-002  
  648.50  5.1570E-002  
  649.00  5.1574E-002  
  649.50  5.1552E-002  
  650.00  5.1547E-002  
  650.50  5.1659E-002  
  651.00  5.1826E-002  
  651.50  5.1962E-002  
  652.00  5.2020E-002  
  652.50  5.2148E-002  
  653.00  5.2238E-002  
  653.50  5.2243E-002  
  654.00  5.2316E-002  
  654.50  5.2383E-002  
  655.00  5.2500E-002  
  655.50  5.2573E-002  
  656.00  5.2775E-002  
  656.50  5.3062E-002  
  657.00  5.3190E-002  
  657.50  5.3279E-002  
  658.00  5.3227E-002  
  658.50  5.3237E-002  
  659.00  5.3320E-002  
  659.50  5.3544E-002  
  660.00  5.3693E-002  
  660.50  5.3734E-002  
  661.00  5.3634E-002  
  661.50  5.3604E-002  
  662.00  5.3632E-002  
  662.50  5.3706E-002  
  663.00  5.3852E-002  
  663.50  5.3973E-002  
  664.00  5.4114E-002  
  664.50  5.4118E-002  
  665.00  5.4101E-002  
  665.50  5.4142E-002  
  666.00  5.4179E-002  
  666.50  5.4356E-002  
  667.00  5.4457E-002  
  667.50  5.4671E-002  
  668.00  5.4652E-002  
  668.50  5.4687E-002  
  669.00  5.4757E-002  
  669.50  5.4911E-002  
  670.00  5.5072E-002  
  670.50  5.5112E-002  
  671.00  5.5056E-002  
  671.50  5.4951E-002  
  672.00  5.5044E-002  
  672.50  5.5178E-002  
  673.00  5.5381E-002  
  673.50  5.5447E-002  
  674.00  5.5544E-002  
  674.50  5.5637E-002  
  675.00  5.5633E-002  
  675.50  5.5798E-002  
  676.00  5.5895E-002  
  676.50  5.6012E-002  
  677.00  5.6031E-002  
  677.50  5.6068E-002  
  678.00  5.6239E-002  
  678.50  5.6367E-002  
  679.00  5.6469E-002  
  679.50  5.6452E-002  
  680.00  5.6566E-002  
