
# From lspdd.org
# 
# Name: DEL Philips CandleLight B11 Domestique
# Indice spectral Valeur 
# MSI 0.25 
# SLI 0.46 
# IPI 0.64 
# Pourcentage de bleu 16.8 
# Caractéristique Valeur 
# CCT calculée (K) 2638 
# CCT du fabricant (K) 2700 
# Tension (V) 120 
# Puissance (W) 3.5 
# Efficacité lumineuse (Lum/W) 51.4 
#
# Image: '/app/system/img_2s/2478/medium_image2.JPG?1413485840'
# Image: '/app/system/img_1s/2478/medium_image1.JPG?1413485844'
# 

  273.00  0.0000E+000  
  273.50  0.0000E+000  
  274.00  0.0000E+000  
  274.50  0.0000E+000  
  275.00  0.0000E+000  
  275.50  0.0000E+000  
  276.00  0.0000E+000  
  276.50  0.0000E+000  
  277.00  0.0000E+000  
  277.50  0.0000E+000  
  278.00  0.0000E+000  
  278.50  0.0000E+000  
  279.00  0.0000E+000  
  279.50  0.0000E+000  
  280.00  0.0000E+000  
  280.50  0.0000E+000  
  281.00  0.0000E+000  
  281.50  0.0000E+000  
  282.00  0.0000E+000  
  282.50  0.0000E+000  
  283.00  0.0000E+000  
  283.50  0.0000E+000  
  284.00  0.0000E+000  
  284.50  0.0000E+000  
  285.00  0.0000E+000  
  285.50  0.0000E+000  
  286.00  0.0000E+000  
  286.50  0.0000E+000  
  287.00  0.0000E+000  
  287.50  0.0000E+000  
  288.00  0.0000E+000  
  288.50  0.0000E+000  
  289.00  0.0000E+000  
  289.50  0.0000E+000  
  290.00  0.0000E+000  
  290.50  0.0000E+000  
  291.00  0.0000E+000  
  291.50  0.0000E+000  
  292.00  0.0000E+000  
  292.50  0.0000E+000  
  293.00  0.0000E+000  
  293.50  0.0000E+000  
  294.00  0.0000E+000  
  294.50  0.0000E+000  
  295.00  0.0000E+000  
  295.50  0.0000E+000  
  296.00  0.0000E+000  
  296.50  0.0000E+000  
  297.00  0.0000E+000  
  297.50  0.0000E+000  
  298.00  0.0000E+000  
  298.50  0.0000E+000  
  299.00  0.0000E+000  
  299.50  0.0000E+000  
  300.00  2.7641E-005  
  300.50  4.0940E-005  
  301.00  6.9419E-007  
  301.50  2.1707E-005  
  302.00  6.8677E-005  
  302.50  1.1391E-004  
  303.00  1.1417E-004  
  303.50  1.0298E-004  
  304.00  6.0372E-005  
  304.50  3.5258E-005  
  305.00  4.4811E-005  
  305.50  4.5974E-005  
  306.00  2.6855E-005  
  306.50  1.6263E-005  
  307.00  2.2323E-005  
  307.50  1.4061E-005  
  308.00  3.6704E-005  
  308.50  4.7728E-005  
  309.00  6.0739E-005  
  309.50  6.6963E-005  
  310.00  6.3789E-005  
  310.50  6.4313E-005  
  311.00  7.2356E-005  
  311.50  1.0559E-004  
  312.00  1.2732E-004  
  312.50  8.5956E-005  
  313.00  2.5806E-005  
  313.50  2.7863E-006  
  314.00  0.0000E+000  
  314.50  0.0000E+000  
  315.00  0.0000E+000  
  315.50  0.0000E+000  
  316.00  7.9072E-006  
  316.50  7.6956E-005  
  317.00  1.3025E-004  
  317.50  1.5806E-004  
  318.00  1.1969E-004  
  318.50  4.6884E-005  
  319.00  3.2024E-005  
  319.50  3.1997E-005  
  320.00  5.7431E-005  
  320.50  1.1888E-004  
  321.00  9.8799E-005  
  321.50  3.8076E-005  
  322.00  5.8043E-007  
  322.50  0.0000E+000  
  323.00  4.5076E-006  
  323.50  2.9663E-005  
  324.00  2.2809E-005  
  324.50  3.2959E-005  
  325.00  5.5721E-005  
  325.50  7.0005E-005  
  326.00  6.8111E-005  
  326.50  2.1635E-005  
  327.00  0.0000E+000  
  327.50  0.0000E+000  
  328.00  0.0000E+000  
  328.50  1.2818E-005  
  329.00  3.6226E-005  
  329.50  1.7467E-005  
  330.00  4.1070E-006  
  330.50  1.6405E-005  
  331.00  2.5336E-005  
  331.50  4.1412E-005  
  332.00  4.9656E-005  
  332.50  6.3047E-005  
  333.00  8.0280E-005  
  333.50  1.0906E-004  
  334.00  1.2759E-004  
  334.50  1.1812E-004  
  335.00  5.5304E-005  
  335.50  3.9894E-005  
  336.00  5.6944E-005  
  336.50  7.2587E-005  
  337.00  7.9403E-005  
  337.50  4.7183E-005  
  338.00  0.0000E+000  
  338.50  2.1542E-007  
  339.00  8.8051E-009  
  339.50  0.0000E+000  
  340.00  0.0000E+000  
  340.50  0.0000E+000  
  341.00  5.6181E-006  
  341.50  7.2768E-005  
  342.00  1.2104E-004  
  342.50  1.5450E-004  
  343.00  1.0089E-004  
  343.50  2.9829E-006  
  344.00  0.0000E+000  
  344.50  0.0000E+000  
  345.00  5.3676E-006  
  345.50  6.3375E-005  
  346.00  1.0941E-004  
  346.50  1.1602E-004  
  347.00  9.9582E-005  
  347.50  1.2243E-004  
  348.00  1.7434E-004  
  348.50  1.9829E-004  
  349.00  2.4206E-004  
  349.50  2.3698E-004  
  350.00  1.5087E-004  
  350.50  9.2322E-005  
  351.00  4.7719E-006  
  351.50  8.0925E-006  
  352.00  1.5933E-005  
  352.50  1.3118E-006  
  353.00  7.2430E-005  
  353.50  7.9412E-005  
  354.00  9.4521E-005  
  354.50  1.0477E-004  
  355.00  8.6340E-005  
  355.50  9.5073E-005  
  356.00  8.2917E-005  
  356.50  4.8357E-005  
  357.00  3.0144E-005  
  357.50  1.9341E-005  
  358.00  4.5026E-005  
  358.50  6.1061E-005  
  359.00  2.5371E-005  
  359.50  1.2899E-005  
  360.00  2.5544E-005  
  360.50  7.2776E-005  
  361.00  8.6221E-005  
  361.50  1.6936E-005  
  362.00  0.0000E+000  
  362.50  0.0000E+000  
  363.00  1.4573E-005  
  363.50  8.6882E-005  
  364.00  1.2468E-004  
  364.50  1.1236E-004  
  365.00  1.1065E-004  
  365.50  7.9015E-005  
  366.00  7.2860E-005  
  366.50  5.6166E-005  
  367.00  5.3074E-005  
  367.50  6.9286E-005  
  368.00  5.4010E-005  
  368.50  5.0555E-005  
  369.00  2.5693E-005  
  369.50  2.1742E-006  
  370.00  7.0154E-006  
  370.50  0.0000E+000  
  371.00  1.5351E-005  
  371.50  6.0103E-005  
  372.00  6.9692E-005  
  372.50  7.5405E-005  
  373.00  1.5938E-005  
  373.50  0.0000E+000  
  374.00  0.0000E+000  
  374.50  1.3574E-005  
  375.00  7.3592E-005  
  375.50  9.9905E-005  
  376.00  1.2912E-004  
  376.50  1.1395E-004  
  377.00  6.2536E-005  
  377.50  3.4856E-005  
  378.00  2.0332E-006  
  378.50  0.0000E+000  
  379.00  0.0000E+000  
  379.50  0.0000E+000  
  380.00  0.0000E+000  
  380.50  1.9163E-005  
  381.00  2.1726E-005  
  381.50  4.1350E-005  
  382.00  9.0317E-005  
  382.50  1.1716E-004  
  383.00  1.6841E-004  
  383.50  1.7712E-004  
  384.00  1.4974E-004  
  384.50  1.1588E-004  
  385.00  1.0338E-004  
  385.50  1.0134E-004  
  386.00  9.1189E-005  
  386.50  7.0595E-005  
  387.00  8.3309E-005  
  387.50  9.2689E-005  
  388.00  9.8203E-005  
  388.50  8.3312E-005  
  389.00  7.6673E-005  
  389.50  1.0808E-004  
  390.00  1.6645E-004  
  390.50  1.9703E-004  
  391.00  2.1445E-004  
  391.50  1.9085E-004  
  392.00  1.3667E-004  
  392.50  4.6481E-005  
  393.00  1.8791E-006  
  393.50  0.0000E+000  
  394.00  0.0000E+000  
  394.50  0.0000E+000  
  395.00  0.0000E+000  
  395.50  1.1333E-005  
  396.00  8.2054E-005  
  396.50  1.0184E-004  
  397.00  1.1354E-004  
  397.50  8.1116E-005  
  398.00  5.3073E-005  
  398.50  4.8843E-005  
  399.00  8.4743E-006  
  399.50  0.0000E+000  
  400.00  1.6704E-005  
  400.50  4.3110E-005  
  401.00  1.1702E-004  
  401.50  1.5383E-004  
  402.00  1.3562E-004  
  402.50  1.2664E-004  
  403.00  1.0340E-004  
  403.50  8.8742E-005  
  404.00  1.0524E-004  
  404.50  1.4762E-004  
  405.00  1.6814E-004  
  405.50  2.1024E-004  
  406.00  2.2081E-004  
  406.50  1.7730E-004  
  407.00  1.2897E-004  
  407.50  1.2821E-004  
  408.00  1.2807E-004  
  408.50  2.2124E-004  
  409.00  2.8986E-004  
  409.50  2.7321E-004  
  410.00  2.4151E-004  
  410.50  1.6574E-004  
  411.00  1.3444E-004  
  411.50  8.2718E-005  
  412.00  7.8333E-005  
  412.50  1.3630E-004  
  413.00  2.1508E-004  
  413.50  2.9263E-004  
  414.00  3.3196E-004  
  414.50  3.1043E-004  
  415.00  2.9001E-004  
  415.50  3.1460E-004  
  416.00  3.5362E-004  
  416.50  4.0336E-004  
  417.00  4.1202E-004  
  417.50  3.8846E-004  
  418.00  3.7240E-004  
  418.50  4.0709E-004  
  419.00  5.2099E-004  
  419.50  6.1367E-004  
  420.00  6.9149E-004  
  420.50  7.3519E-004  
  421.00  7.2818E-004  
  421.50  7.4308E-004  
  422.00  7.7053E-004  
  422.50  7.8501E-004  
  423.00  8.2449E-004  
  423.50  8.7079E-004  
  424.00  9.4550E-004  
  424.50  1.0164E-003  
  425.00  1.0571E-003  
  425.50  1.0334E-003  
  426.00  1.0339E-003  
  426.50  1.0949E-003  
  427.00  1.2006E-003  
  427.50  1.3417E-003  
  428.00  1.4218E-003  
  428.50  1.4590E-003  
  429.00  1.4771E-003  
  429.50  1.5730E-003  
  430.00  1.6831E-003  
  430.50  1.7606E-003  
  431.00  1.8137E-003  
  431.50  1.8558E-003  
  432.00  1.9507E-003  
  432.50  2.0794E-003  
  433.00  2.2053E-003  
  433.50  2.2962E-003  
  434.00  2.3669E-003  
  434.50  2.4464E-003  
  435.00  2.5663E-003  
  435.50  2.6477E-003  
  436.00  2.7907E-003  
  436.50  2.9131E-003  
  437.00  3.0907E-003  
  437.50  3.2686E-003  
  438.00  3.3848E-003  
  438.50  3.5214E-003  
  439.00  3.6255E-003  
  439.50  3.7817E-003  
  440.00  3.9350E-003  
  440.50  4.0589E-003  
  441.00  4.2243E-003  
  441.50  4.4369E-003  
  442.00  4.6318E-003  
  442.50  4.8564E-003  
  443.00  5.0576E-003  
  443.50  5.2751E-003  
  444.00  5.4944E-003  
  444.50  5.6648E-003  
  445.00  5.8411E-003  
  445.50  6.0543E-003  
  446.00  6.2814E-003  
  446.50  6.4721E-003  
  447.00  6.5977E-003  
  447.50  6.6815E-003  
  448.00  6.7767E-003  
  448.50  6.8649E-003  
  449.00  7.0053E-003  
  449.50  7.1526E-003  
  450.00  7.2706E-003  
  450.50  7.3063E-003  
  451.00  7.2550E-003  
  451.50  7.1820E-003  
  452.00  7.1307E-003  
  452.50  7.0719E-003  
  453.00  6.9913E-003  
  453.50  6.8286E-003  
  454.00  6.6486E-003  
  454.50  6.5168E-003  
  455.00  6.4152E-003  
  455.50  6.3209E-003  
  456.00  6.2029E-003  
  456.50  6.0511E-003  
  457.00  5.9292E-003  
  457.50  5.8040E-003  
  458.00  5.6814E-003  
  458.50  5.5651E-003  
  459.00  5.4486E-003  
  459.50  5.3152E-003  
  460.00  5.2026E-003  
  460.50  5.1063E-003  
  461.00  4.9989E-003  
  461.50  4.8896E-003  
  462.00  4.7693E-003  
  462.50  4.6977E-003  
  463.00  4.6385E-003  
  463.50  4.6140E-003  
  464.00  4.5719E-003  
  464.50  4.5623E-003  
  465.00  4.5435E-003  
  465.50  4.5483E-003  
  466.00  4.5250E-003  
  466.50  4.4368E-003  
  467.00  4.3670E-003  
  467.50  4.2802E-003  
  468.00  4.2079E-003  
  468.50  4.1583E-003  
  469.00  4.1245E-003  
  469.50  4.1702E-003  
  470.00  4.1762E-003  
  470.50  4.1518E-003  
  471.00  4.0957E-003  
  471.50  4.0446E-003  
  472.00  3.9969E-003  
  472.50  3.9349E-003  
  473.00  3.9181E-003  
  473.50  3.9147E-003  
  474.00  3.9029E-003  
  474.50  3.8989E-003  
  475.00  3.8402E-003  
  475.50  3.8195E-003  
  476.00  3.7757E-003  
  476.50  3.7089E-003  
  477.00  3.6996E-003  
  477.50  3.7185E-003  
  478.00  3.7187E-003  
  478.50  3.7319E-003  
  479.00  3.7525E-003  
  479.50  3.7794E-003  
  480.00  3.7788E-003  
  480.50  3.7204E-003  
  481.00  3.7218E-003  
  481.50  3.7159E-003  
  482.00  3.7637E-003  
  482.50  3.8165E-003  
  483.00  3.8437E-003  
  483.50  3.8832E-003  
  484.00  3.9486E-003  
  484.50  4.0044E-003  
  485.00  4.0350E-003  
  485.50  4.0637E-003  
  486.00  4.0652E-003  
  486.50  4.0999E-003  
  487.00  4.1514E-003  
  487.50  4.2065E-003  
  488.00  4.2630E-003  
  488.50  4.3435E-003  
  489.00  4.3848E-003  
  489.50  4.4407E-003  
  490.00  4.5152E-003  
  490.50  4.5746E-003  
  491.00  4.6694E-003  
  491.50  4.7320E-003  
  492.00  4.7861E-003  
  492.50  4.8242E-003  
  493.00  4.8690E-003  
  493.50  4.9086E-003  
  494.00  4.9688E-003  
  494.50  5.0368E-003  
  495.00  5.0910E-003  
  495.50  5.1517E-003  
  496.00  5.2057E-003  
  496.50  5.3100E-003  
  497.00  5.4103E-003  
  497.50  5.4941E-003  
  498.00  5.5837E-003  
  498.50  5.6701E-003  
  499.00  5.7900E-003  
  499.50  5.9040E-003  
  500.00  5.9895E-003  
  500.50  6.0507E-003  
  501.00  6.1318E-003  
  501.50  6.1860E-003  
  502.00  6.2642E-003  
  502.50  6.3255E-003  
  503.00  6.4081E-003  
  503.50  6.4844E-003  
  504.00  6.5805E-003  
  504.50  6.6748E-003  
  505.00  6.7810E-003  
  505.50  6.8856E-003  
  506.00  6.9474E-003  
  506.50  6.9839E-003  
  507.00  7.0253E-003  
  507.50  7.0802E-003  
  508.00  7.1491E-003  
  508.50  7.2214E-003  
  509.00  7.3428E-003  
  509.50  7.4696E-003  
  510.00  7.6164E-003  
  510.50  7.7103E-003  
  511.00  7.7744E-003  
  511.50  7.8210E-003  
  512.00  7.8765E-003  
  512.50  7.9337E-003  
  513.00  8.0020E-003  
  513.50  8.0427E-003  
  514.00  8.1218E-003  
  514.50  8.2280E-003  
  515.00  8.3305E-003  
  515.50  8.3865E-003  
  516.00  8.4213E-003  
  516.50  8.5163E-003  
  517.00  8.6850E-003  
  517.50  8.8435E-003  
  518.00  8.9159E-003  
  518.50  8.9481E-003  
  519.00  8.9746E-003  
  519.50  9.0357E-003  
  520.00  9.1214E-003  
  520.50  9.1985E-003  
  521.00  9.2919E-003  
  521.50  9.3885E-003  
  522.00  9.4898E-003  
  522.50  9.5599E-003  
  523.00  9.5997E-003  
  523.50  9.6482E-003  
  524.00  9.7376E-003  
  524.50  9.8393E-003  
  525.00  9.9383E-003  
  525.50  1.0024E-002  
  526.00  1.0096E-002  
  526.50  1.0175E-002  
  527.00  1.0226E-002  
  527.50  1.0286E-002  
  528.00  1.0335E-002  
  528.50  1.0388E-002  
  529.00  1.0472E-002  
  529.50  1.0556E-002  
  530.00  1.0658E-002  
  530.50  1.0753E-002  
  531.00  1.0858E-002  
  531.50  1.0967E-002  
  532.00  1.1070E-002  
  532.50  1.1146E-002  
  533.00  1.1221E-002  
  533.50  1.1320E-002  
  534.00  1.1405E-002  
  534.50  1.1480E-002  
  535.00  1.1524E-002  
  535.50  1.1568E-002  
  536.00  1.1647E-002  
  536.50  1.1738E-002  
  537.00  1.1854E-002  
  537.50  1.1971E-002  
  538.00  1.2093E-002  
  538.50  1.2199E-002  
  539.00  1.2327E-002  
  539.50  1.2415E-002  
  540.00  1.2497E-002  
  540.50  1.2574E-002  
  541.00  1.2650E-002  
  541.50  1.2768E-002  
  542.00  1.2879E-002  
  542.50  1.2960E-002  
  543.00  1.3051E-002  
  543.50  1.3131E-002  
  544.00  1.3289E-002  
  544.50  1.3386E-002  
  545.00  1.3475E-002  
  545.50  1.3547E-002  
  546.00  1.3615E-002  
  546.50  1.3698E-002  
  547.00  1.3781E-002  
  547.50  1.3894E-002  
  548.00  1.4058E-002  
  548.50  1.4194E-002  
  549.00  1.4301E-002  
  549.50  1.4386E-002  
  550.00  1.4487E-002  
  550.50  1.4605E-002  
  551.00  1.4727E-002  
  551.50  1.4817E-002  
  552.00  1.4912E-002  
  552.50  1.5038E-002  
  553.00  1.5215E-002  
  553.50  1.5395E-002  
  554.00  1.5538E-002  
  554.50  1.5613E-002  
  555.00  1.5662E-002  
  555.50  1.5744E-002  
  556.00  1.5916E-002  
  556.50  1.6123E-002  
  557.00  1.6285E-002  
  557.50  1.6452E-002  
  558.00  1.6590E-002  
  558.50  1.6739E-002  
  559.00  1.6830E-002  
  559.50  1.6890E-002  
  560.00  1.7015E-002  
  560.50  1.7132E-002  
  561.00  1.7227E-002  
  561.50  1.7344E-002  
  562.00  1.7469E-002  
  562.50  1.7663E-002  
  563.00  1.7844E-002  
  563.50  1.7993E-002  
  564.00  1.8096E-002  
  564.50  1.8175E-002  
  565.00  1.8291E-002  
  565.50  1.8459E-002  
  566.00  1.8597E-002  
  566.50  1.8702E-002  
  567.00  1.8807E-002  
  567.50  1.8901E-002  
  568.00  1.9056E-002  
  568.50  1.9224E-002  
  569.00  1.9387E-002  
  569.50  1.9530E-002  
  570.00  1.9633E-002  
  570.50  1.9793E-002  
  571.00  1.9930E-002  
  571.50  2.0115E-002  
  572.00  2.0327E-002  
  572.50  2.0551E-002  
  573.00  2.0711E-002  
  573.50  2.0802E-002  
  574.00  2.0877E-002  
  574.50  2.0985E-002  
  575.00  2.1087E-002  
  575.50  2.1212E-002  
  576.00  2.1378E-002  
  576.50  2.1595E-002  
  577.00  2.1807E-002  
  577.50  2.1958E-002  
  578.00  2.2050E-002  
  578.50  2.2147E-002  
  579.00  2.2315E-002  
  579.50  2.2473E-002  
  580.00  2.2593E-002  
  580.50  2.2657E-002  
  581.00  2.2747E-002  
  581.50  2.2895E-002  
  582.00  2.3043E-002  
  582.50  2.3205E-002  
  583.00  2.3356E-002  
  583.50  2.3503E-002  
  584.00  2.3630E-002  
  584.50  2.3790E-002  
  585.00  2.3928E-002  
  585.50  2.4091E-002  
  586.00  2.4200E-002  
  586.50  2.4328E-002  
  587.00  2.4382E-002  
  587.50  2.4432E-002  
  588.00  2.4508E-002  
  588.50  2.4641E-002  
  589.00  2.4860E-002  
  589.50  2.4998E-002  
  590.00  2.5155E-002  
  590.50  2.5260E-002  
  591.00  2.5433E-002  
  591.50  2.5477E-002  
  592.00  2.5472E-002  
  592.50  2.5455E-002  
  593.00  2.5552E-002  
  593.50  2.5660E-002  
  594.00  2.5756E-002  
  594.50  2.5818E-002  
  595.00  2.5891E-002  
  595.50  2.5981E-002  
  596.00  2.6056E-002  
  596.50  2.6157E-002  
  597.00  2.6184E-002  
  597.50  2.6170E-002  
  598.00  2.6168E-002  
  598.50  2.6219E-002  
  599.00  2.6300E-002  
  599.50  2.6341E-002  
  600.00  2.6369E-002  
  600.50  2.6385E-002  
  601.00  2.6412E-002  
  601.50  2.6460E-002  
  602.00  2.6542E-002  
  602.50  2.6624E-002  
  603.00  2.6682E-002  
  603.50  2.6719E-002  
  604.00  2.6722E-002  
  604.50  2.6791E-002  
  605.00  2.6743E-002  
  605.50  2.6688E-002  
  606.00  2.6588E-002  
  606.50  2.6568E-002  
  607.00  2.6571E-002  
  607.50  2.6493E-002  
  608.00  2.6392E-002  
  608.50  2.6323E-002  
  609.00  2.6324E-002  
  609.50  2.6307E-002  
  610.00  2.6289E-002  
  610.50  2.6226E-002  
  611.00  2.6218E-002  
  611.50  2.6174E-002  
  612.00  2.6071E-002  
  612.50  2.5980E-002  
  613.00  2.5889E-002  
  613.50  2.5892E-002  
  614.00  2.5818E-002  
  614.50  2.5752E-002  
  615.00  2.5630E-002  
  615.50  2.5553E-002  
  616.00  2.5489E-002  
  616.50  2.5441E-002  
  617.00  2.5396E-002  
  617.50  2.5292E-002  
  618.00  2.5175E-002  
  618.50  2.4994E-002  
  619.00  2.4817E-002  
  619.50  2.4623E-002  
  620.00  2.4476E-002  
  620.50  2.4335E-002  
  621.00  2.4275E-002  
  621.50  2.4171E-002  
  622.00  2.4046E-002  
  622.50  2.3855E-002  
  623.00  2.3724E-002  
  623.50  2.3666E-002  
  624.00  2.3635E-002  
  624.50  2.3504E-002  
  625.00  2.3350E-002  
  625.50  2.3205E-002  
  626.00  2.3100E-002  
  626.50  2.2977E-002  
  627.00  2.2855E-002  
  627.50  2.2754E-002  
  628.00  2.2638E-002  
  628.50  2.2469E-002  
  629.00  2.2249E-002  
  629.50  2.2047E-002  
  630.00  2.1882E-002  
  630.50  2.1721E-002  
  631.00  2.1550E-002  
  631.50  2.1385E-002  
  632.00  2.1211E-002  
  632.50  2.1052E-002  
  633.00  2.0887E-002  
  633.50  2.0705E-002  
  634.00  2.0618E-002  
  634.50  2.0458E-002  
  635.00  2.0338E-002  
  635.50  2.0114E-002  
  636.00  1.9952E-002  
  636.50  1.9771E-002  
  637.00  1.9576E-002  
  637.50  1.9429E-002  
  638.00  1.9279E-002  
  638.50  1.9169E-002  
  639.00  1.8993E-002  
  639.50  1.8781E-002  
  640.00  1.8579E-002  
  640.50  1.8416E-002  
  641.00  1.8262E-002  
  641.50  1.8098E-002  
  642.00  1.7947E-002  
  642.50  1.7802E-002  
  643.00  1.7569E-002  
  643.50  1.7207E-002  
  644.00  1.6915E-002  
  644.50  1.6750E-002  
  645.00  1.6705E-002  
  645.50  1.6607E-002  
  646.00  1.6487E-002  
  646.50  1.6326E-002  
  647.00  1.6143E-002  
  647.50  1.5950E-002  
  648.00  1.5747E-002  
  648.50  1.5558E-002  
  649.00  1.5386E-002  
  649.50  1.5244E-002  
  650.00  1.5133E-002  
  650.50  1.4947E-002  
  651.00  1.4760E-002  
  651.50  1.4524E-002  
  652.00  1.4312E-002  
  652.50  1.4157E-002  
  653.00  1.4079E-002  
  653.50  1.3947E-002  
  654.00  1.3748E-002  
  654.50  1.3517E-002  
  655.00  1.3393E-002  
  655.50  1.3267E-002  
  656.00  1.3145E-002  
  656.50  1.3015E-002  
  657.00  1.2851E-002  
  657.50  1.2626E-002  
  658.00  1.2451E-002  
  658.50  1.2260E-002  
  659.00  1.2166E-002  
  659.50  1.2099E-002  
  660.00  1.2016E-002  
  660.50  1.1840E-002  
  661.00  1.1621E-002  
  661.50  1.1500E-002  
  662.00  1.1380E-002  
  662.50  1.1146E-002  
  663.00  1.0911E-002  
  663.50  1.0783E-002  
  664.00  1.0723E-002  
  664.50  1.0623E-002  
  665.00  1.0494E-002  
  665.50  1.0308E-002  
  666.00  1.0120E-002  
  666.50  9.9694E-003  
  667.00  9.8578E-003  
  667.50  9.7834E-003  
  668.00  9.6729E-003  
  668.50  9.6021E-003  
  669.00  9.5281E-003  
  669.50  9.4046E-003  
  670.00  9.1248E-003  
  670.50  8.9044E-003  
  671.00  8.7542E-003  
  671.50  8.7062E-003  
  672.00  8.6479E-003  
  672.50  8.5681E-003  
  673.00  8.4967E-003  
  673.50  8.3321E-003  
  674.00  8.1463E-003  
  674.50  7.9956E-003  
  675.00  7.8894E-003  
  675.50  7.7819E-003  
  676.00  7.6432E-003  
  676.50  7.5169E-003  
  677.00  7.4485E-003  
  677.50  7.3883E-003  
  678.00  7.3135E-003  
  678.50  7.1589E-003  
  679.00  7.0268E-003  
  679.50  6.8789E-003  
