
# From lspdd.org
# 
# Name: HM - Venture Extérieur
# Indice spectral Valeur 
# MSI 0.59 
# SLI 0.58 
# IPI 0.62 
# Pourcentage de bleu 31.7 
# Caractéristique Valeur 
# CCT calculée (K) 4499 
# CCT du fabricant (K) 4700 
# Tension (V) 0 
# Puissance (W) 400.0 
# Efficacité lumineuse (Lum/W) ND 
#
# Image: '/app/system/img_1s/2481/medium_image1.jpg?1413485862'
# 

  273.00  0.0000E+000  
  273.50  0.0000E+000  
  274.00  0.0000E+000  
  274.50  0.0000E+000  
  275.00  0.0000E+000  
  275.50  0.0000E+000  
  276.00  0.0000E+000  
  276.50  0.0000E+000  
  277.00  0.0000E+000  
  277.50  0.0000E+000  
  278.00  0.0000E+000  
  278.50  0.0000E+000  
  279.00  0.0000E+000  
  279.50  0.0000E+000  
  280.00  0.0000E+000  
  280.50  0.0000E+000  
  281.00  0.0000E+000  
  281.50  0.0000E+000  
  282.00  0.0000E+000  
  282.50  0.0000E+000  
  283.00  0.0000E+000  
  283.50  0.0000E+000  
  284.00  0.0000E+000  
  284.50  0.0000E+000  
  285.00  0.0000E+000  
  285.50  0.0000E+000  
  286.00  0.0000E+000  
  286.50  0.0000E+000  
  287.00  0.0000E+000  
  287.50  0.0000E+000  
  288.00  0.0000E+000  
  288.50  0.0000E+000  
  289.00  0.0000E+000  
  289.50  0.0000E+000  
  290.00  0.0000E+000  
  290.50  0.0000E+000  
  291.00  0.0000E+000  
  291.50  0.0000E+000  
  292.00  0.0000E+000  
  292.50  0.0000E+000  
  293.00  0.0000E+000  
  293.50  0.0000E+000  
  294.00  0.0000E+000  
  294.50  0.0000E+000  
  295.00  0.0000E+000  
  295.50  0.0000E+000  
  296.00  0.0000E+000  
  296.50  0.0000E+000  
  297.00  0.0000E+000  
  297.50  0.0000E+000  
  298.00  0.0000E+000  
  298.50  0.0000E+000  
  299.00  0.0000E+000  
  299.50  0.0000E+000  
  300.00  4.9807E-005  
  300.50  1.7987E-004  
  301.00  2.1488E-004  
  301.50  2.2710E-004  
  302.00  1.7107E-004  
  302.50  1.1737E-004  
  303.00  8.5130E-005  
  303.50  4.7644E-005  
  304.00  5.8411E-005  
  304.50  0.0000E+000  
  305.00  2.1769E-006  
  305.50  6.4674E-006  
  306.00  5.1638E-005  
  306.50  1.6958E-004  
  307.00  1.9179E-004  
  307.50  1.3850E-004  
  308.00  6.3845E-005  
  308.50  0.0000E+000  
  309.00  0.0000E+000  
  309.50  0.0000E+000  
  310.00  0.0000E+000  
  310.50  0.0000E+000  
  311.00  6.0419E-006  
  311.50  6.0033E-005  
  312.00  8.4927E-005  
  312.50  6.4350E-005  
  313.00  2.1065E-005  
  313.50  2.3987E-005  
  314.00  6.8951E-005  
  314.50  7.4888E-005  
  315.00  8.3312E-005  
  315.50  4.8259E-005  
  316.00  1.3308E-005  
  316.50  2.1261E-006  
  317.00  0.0000E+000  
  317.50  0.0000E+000  
  318.00  0.0000E+000  
  318.50  0.0000E+000  
  319.00  1.8896E-005  
  319.50  4.6215E-005  
  320.00  5.6515E-005  
  320.50  8.2901E-005  
  321.00  9.1610E-005  
  321.50  4.1151E-005  
  322.00  1.6121E-005  
  322.50  0.0000E+000  
  323.00  0.0000E+000  
  323.50  0.0000E+000  
  324.00  1.8706E-006  
  324.50  3.2156E-005  
  325.00  9.4034E-005  
  325.50  8.8515E-005  
  326.00  9.9406E-005  
  326.50  8.9183E-005  
  327.00  8.2177E-005  
  327.50  1.0832E-004  
  328.00  5.3650E-005  
  328.50  5.7499E-005  
  329.00  7.1794E-005  
  329.50  5.3966E-005  
  330.00  5.5638E-005  
  330.50  2.7906E-005  
  331.00  2.1065E-006  
  331.50  0.0000E+000  
  332.00  0.0000E+000  
  332.50  9.6902E-006  
  333.00  5.4079E-005  
  333.50  6.7991E-005  
  334.00  4.3610E-005  
  334.50  6.0297E-005  
  335.00  9.1699E-005  
  335.50  1.3780E-004  
  336.00  1.6324E-004  
  336.50  1.3369E-004  
  337.00  1.0252E-004  
  337.50  3.5065E-005  
  338.00  0.0000E+000  
  338.50  0.0000E+000  
  339.00  0.0000E+000  
  339.50  2.4446E-005  
  340.00  6.5658E-005  
  340.50  5.2227E-005  
  341.00  1.1940E-005  
  341.50  2.7705E-006  
  342.00  0.0000E+000  
  342.50  4.0396E-006  
  343.00  5.1803E-006  
  343.50  0.0000E+000  
  344.00  2.0973E-005  
  344.50  4.1445E-005  
  345.00  6.5817E-005  
  345.50  8.1126E-005  
  346.00  2.9982E-005  
  346.50  4.7572E-007  
  347.00  4.2727E-005  
  347.50  9.3788E-005  
  348.00  1.6702E-004  
  348.50  1.7265E-004  
  349.00  1.4367E-004  
  349.50  1.4754E-004  
  350.00  1.6353E-004  
  350.50  1.5066E-004  
  351.00  1.1297E-004  
  351.50  9.2356E-005  
  352.00  8.3730E-005  
  352.50  1.1222E-004  
  353.00  1.6585E-004  
  353.50  2.2973E-004  
  354.00  3.1193E-004  
  354.50  3.7660E-004  
  355.00  4.3161E-004  
  355.50  4.7059E-004  
  356.00  5.3332E-004  
  356.50  5.9742E-004  
  357.00  6.4233E-004  
  357.50  6.2731E-004  
  358.00  5.6136E-004  
  358.50  5.0592E-004  
  359.00  4.7486E-004  
  359.50  4.9439E-004  
  360.00  4.8584E-004  
  360.50  4.8759E-004  
  361.00  5.3810E-004  
  361.50  6.1166E-004  
  362.00  7.0436E-004  
  362.50  8.2630E-004  
  363.00  1.1131E-003  
  363.50  1.7608E-003  
  364.00  2.7949E-003  
  364.50  3.8265E-003  
  365.00  4.3201E-003  
  365.50  4.0889E-003  
  366.00  3.2029E-003  
  366.50  2.2322E-003  
  367.00  1.4583E-003  
  367.50  1.0123E-003  
  368.00  7.0294E-004  
  368.50  5.7142E-004  
  369.00  5.6766E-004  
  369.50  5.5713E-004  
  370.00  5.6477E-004  
  370.50  5.3374E-004  
  371.00  4.8612E-004  
  371.50  5.1785E-004  
  372.00  5.7124E-004  
  372.50  5.6712E-004  
  373.00  5.2422E-004  
  373.50  4.4857E-004  
  374.00  4.4798E-004  
  374.50  4.2269E-004  
  375.00  4.3013E-004  
  375.50  4.3589E-004  
  376.00  4.2878E-004  
  376.50  4.8835E-004  
  377.00  5.1848E-004  
  377.50  5.1426E-004  
  378.00  5.4578E-004  
  378.50  5.4251E-004  
  379.00  5.3845E-004  
  379.50  4.9807E-004  
  380.00  4.4679E-004  
  380.50  3.8931E-004  
  381.00  4.0936E-004  
  381.50  4.7460E-004  
  382.00  5.5347E-004  
  382.50  6.5935E-004  
  383.00  6.8286E-004  
  383.50  6.7242E-004  
  384.00  6.4111E-004  
  384.50  6.1071E-004  
  385.00  6.1569E-004  
  385.50  6.2520E-004  
  386.00  6.5682E-004  
  386.50  6.9013E-004  
  387.00  7.5494E-004  
  387.50  7.7340E-004  
  388.00  7.7600E-004  
  388.50  7.8936E-004  
  389.00  8.6725E-004  
  389.50  1.1586E-003  
  390.00  1.5782E-003  
  390.50  1.9624E-003  
  391.00  2.0304E-003  
  391.50  1.8483E-003  
  392.00  1.5394E-003  
  392.50  1.3158E-003  
  393.00  1.2253E-003  
  393.50  1.1985E-003  
  394.00  1.1494E-003  
  394.50  1.0584E-003  
  395.00  1.0275E-003  
  395.50  1.0079E-003  
  396.00  9.8754E-004  
  396.50  9.5523E-004  
  397.00  8.9396E-004  
  397.50  8.3661E-004  
  398.00  9.1155E-004  
  398.50  1.0228E-003  
  399.00  1.1628E-003  
  399.50  1.2811E-003  
  400.00  1.3592E-003  
  400.50  1.5874E-003  
  401.00  2.0455E-003  
  401.50  2.5608E-003  
  402.00  2.9375E-003  
  402.50  3.0188E-003  
  403.00  3.3349E-003  
  403.50  4.1502E-003  
  404.00  5.1691E-003  
  404.50  5.6098E-003  
  405.00  5.1172E-003  
  405.50  3.7859E-003  
  406.00  2.5936E-003  
  406.50  2.0614E-003  
  407.00  2.0994E-003  
  407.50  2.3031E-003  
  408.00  2.3235E-003  
  408.50  2.0670E-003  
  409.00  1.6891E-003  
  409.50  1.3981E-003  
  410.00  1.2177E-003  
  410.50  1.0960E-003  
  411.00  1.0114E-003  
  411.50  9.8131E-004  
  412.00  1.0135E-003  
  412.50  1.1442E-003  
  413.00  1.2853E-003  
  413.50  1.3603E-003  
  414.00  1.3824E-003  
  414.50  1.4045E-003  
  415.00  1.4584E-003  
  415.50  1.5326E-003  
  416.00  1.5456E-003  
  416.50  1.4671E-003  
  417.00  1.3625E-003  
  417.50  1.2593E-003  
  418.00  1.1580E-003  
  418.50  1.0984E-003  
  419.00  1.0392E-003  
  419.50  9.8056E-004  
  420.00  9.8789E-004  
  420.50  1.0629E-003  
  421.00  1.1533E-003  
  421.50  1.1999E-003  
  422.00  1.2750E-003  
  422.50  1.3992E-003  
  423.00  1.7047E-003  
  423.50  2.1538E-003  
  424.00  2.5120E-003  
  424.50  2.6126E-003  
  425.00  2.3806E-003  
  425.50  1.9615E-003  
  426.00  1.5727E-003  
  426.50  1.3539E-003  
  427.00  1.2992E-003  
  427.50  1.3197E-003  
  428.00  1.3352E-003  
  428.50  1.3614E-003  
  429.00  1.3892E-003  
  429.50  1.4801E-003  
  430.00  1.7231E-003  
  430.50  2.1736E-003  
  431.00  2.6530E-003  
  431.50  2.9652E-003  
  432.00  2.9387E-003  
  432.50  2.7077E-003  
  433.00  2.5543E-003  
  433.50  2.8849E-003  
  434.00  4.2477E-003  
  434.50  7.0313E-003  
  435.00  1.0326E-002  
  435.50  1.2369E-002  
  436.00  1.1726E-002  
  436.50  9.1803E-003  
  437.00  6.1913E-003  
  437.50  4.1002E-003  
  438.00  3.1033E-003  
  438.50  2.6650E-003  
  439.00  2.5009E-003  
  439.50  2.4563E-003  
  440.00  2.4548E-003  
  440.50  2.4617E-003  
  441.00  2.4321E-003  
  441.50  2.3774E-003  
  442.00  2.3187E-003  
  442.50  2.2242E-003  
  443.00  2.1221E-003  
  443.50  2.0037E-003  
  444.00  1.8773E-003  
  444.50  1.7636E-003  
  445.00  1.6253E-003  
  445.50  1.4831E-003  
  446.00  1.3151E-003  
  446.50  1.1940E-003  
  447.00  1.0733E-003  
  447.50  1.0070E-003  
  448.00  9.9585E-004  
  448.50  9.7199E-004  
  449.00  9.3079E-004  
  449.50  8.7762E-004  
  450.00  8.1680E-004  
  450.50  8.5568E-004  
  451.00  8.8171E-004  
  451.50  9.0124E-004  
  452.00  9.1167E-004  
  452.50  8.9688E-004  
  453.00  8.9761E-004  
  453.50  8.7005E-004  
  454.00  8.6943E-004  
  454.50  8.2926E-004  
  455.00  8.7251E-004  
  455.50  8.9805E-004  
  456.00  9.0278E-004  
  456.50  9.0467E-004  
  457.00  8.3384E-004  
  457.50  7.8207E-004  
  458.00  7.3931E-004  
  458.50  7.3261E-004  
  459.00  7.2899E-004  
  459.50  7.2376E-004  
  460.00  6.8314E-004  
  460.50  6.0339E-004  
  461.00  5.6139E-004  
  461.50  5.4126E-004  
  462.00  5.4137E-004  
  462.50  5.0985E-004  
  463.00  4.9475E-004  
  463.50  4.7225E-004  
  464.00  4.7191E-004  
  464.50  5.4386E-004  
  465.00  5.9107E-004  
  465.50  6.6729E-004  
  466.00  7.4838E-004  
  466.50  7.8453E-004  
  467.00  8.0882E-004  
  467.50  7.7792E-004  
  468.00  7.3998E-004  
  468.50  7.5728E-004  
  469.00  7.8860E-004  
  469.50  8.8316E-004  
  470.00  1.0016E-003  
  470.50  1.1340E-003  
  471.00  1.2544E-003  
  471.50  1.4810E-003  
  472.00  1.9849E-003  
  472.50  2.7830E-003  
  473.00  3.6576E-003  
  473.50  4.1672E-003  
  474.00  4.0839E-003  
  474.50  3.3320E-003  
  475.00  2.4067E-003  
  475.50  1.5897E-003  
  476.00  1.0907E-003  
  476.50  9.2664E-004  
  477.00  9.0749E-004  
  477.50  9.5593E-004  
  478.00  9.5438E-004  
  478.50  8.7459E-004  
  479.00  7.5028E-004  
  479.50  6.5287E-004  
  480.00  6.1528E-004  
  480.50  6.5637E-004  
  481.00  7.3330E-004  
  481.50  8.1439E-004  
  482.00  9.0913E-004  
  482.50  9.9331E-004  
  483.00  1.0856E-003  
  483.50  1.1033E-003  
  484.00  1.0677E-003  
  484.50  9.4993E-004  
  485.00  8.1987E-004  
  485.50  7.0464E-004  
  486.00  6.8821E-004  
  486.50  7.1871E-004  
  487.00  7.5157E-004  
  487.50  7.2571E-004  
  488.00  6.6361E-004  
  488.50  5.9767E-004  
  489.00  5.9405E-004  
  489.50  6.2528E-004  
  490.00  6.9262E-004  
  490.50  8.1359E-004  
  491.00  9.4823E-004  
  491.50  1.0357E-003  
  492.00  1.0025E-003  
  492.50  8.9576E-004  
  493.00  8.0148E-004  
  493.50  7.7451E-004  
  494.00  7.7787E-004  
  494.50  7.8626E-004  
  495.00  7.6208E-004  
  495.50  7.3553E-004  
  496.00  7.1733E-004  
  496.50  7.3929E-004  
  497.00  8.1351E-004  
  497.50  9.2737E-004  
  498.00  1.0147E-003  
  498.50  1.0024E-003  
  499.00  9.2537E-004  
  499.50  8.0384E-004  
  500.00  7.3797E-004  
  500.50  7.2560E-004  
  501.00  8.0269E-004  
  501.50  9.4030E-004  
  502.00  1.0586E-003  
  502.50  1.1270E-003  
  503.00  1.0600E-003  
  503.50  9.4625E-004  
  504.00  8.4060E-004  
  504.50  8.1838E-004  
  505.00  9.6583E-004  
  505.50  1.3066E-003  
  506.00  1.8964E-003  
  506.50  2.7533E-003  
  507.00  4.1086E-003  
  507.50  5.6565E-003  
  508.00  6.6475E-003  
  508.50  6.6053E-003  
  509.00  5.4076E-003  
  509.50  3.9011E-003  
  510.00  2.7302E-003  
  510.50  1.9983E-003  
  511.00  1.5404E-003  
  511.50  1.2222E-003  
  512.00  9.6633E-004  
  512.50  7.5053E-004  
  513.00  6.0906E-004  
  513.50  5.5038E-004  
  514.00  5.6092E-004  
  514.50  6.1388E-004  
  515.00  6.5060E-004  
  515.50  6.5104E-004  
  516.00  6.1135E-004  
  516.50  5.5919E-004  
  517.00  5.2852E-004  
  517.50  5.0578E-004  
  518.00  5.0652E-004  
  518.50  5.2180E-004  
  519.00  5.8404E-004  
  519.50  6.6659E-004  
  520.00  7.9312E-004  
  520.50  9.1889E-004  
  521.00  1.0049E-003  
  521.50  1.0103E-003  
  522.00  9.2570E-004  
  522.50  8.4297E-004  
  523.00  7.5721E-004  
  523.50  7.0032E-004  
  524.00  6.7055E-004  
  524.50  6.9987E-004  
  525.00  7.5563E-004  
  525.50  7.7883E-004  
  526.00  7.2831E-004  
  526.50  6.4347E-004  
  527.00  5.8406E-004  
  527.50  6.1204E-004  
  528.00  6.6628E-004  
  528.50  7.0838E-004  
  529.00  7.0425E-004  
  529.50  6.8782E-004  
  530.00  6.7416E-004  
  530.50  6.8697E-004  
  531.00  7.0547E-004  
  531.50  7.1888E-004  
  532.00  7.5614E-004  
  532.50  8.6365E-004  
  533.00  1.1280E-003  
  533.50  1.5900E-003  
  534.00  2.1707E-003  
  534.50  2.6045E-003  
  535.00  2.6868E-003  
  535.50  2.3370E-003  
  536.00  1.8133E-003  
  536.50  1.4143E-003  
  537.00  1.2478E-003  
  537.50  1.2503E-003  
  538.00  1.3251E-003  
  538.50  1.3985E-003  
  539.00  1.3903E-003  
  539.50  1.2779E-003  
  540.00  1.0913E-003  
  540.50  9.5179E-004  
  541.00  9.3272E-004  
  541.50  9.9120E-004  
  542.00  1.0681E-003  
  542.50  1.1765E-003  
  543.00  1.3342E-003  
  543.50  1.7461E-003  
  544.00  3.6105E-003  
  544.50  8.2381E-003  
  545.00  1.6150E-002  
  545.50  2.3662E-002  
  546.00  2.5308E-002  
  546.50  2.1121E-002  
  547.00  1.3841E-002  
  547.50  8.1195E-003  
  548.00  5.3546E-003  
  548.50  3.8574E-003  
  549.00  2.7469E-003  
  549.50  1.9583E-003  
  550.00  1.7680E-003  
  550.50  2.1257E-003  
  551.00  2.7217E-003  
  551.50  3.1279E-003  
  552.00  3.0682E-003  
  552.50  2.5608E-003  
  553.00  1.9166E-003  
  553.50  1.4445E-003  
  554.00  1.1867E-003  
  554.50  1.0877E-003  
  555.00  1.0128E-003  
  555.50  9.8563E-004  
  556.00  9.6571E-004  
  556.50  9.8067E-004  
  557.00  9.7693E-004  
  557.50  1.0158E-003  
  558.00  1.0748E-003  
  558.50  1.1188E-003  
  559.00  1.0913E-003  
  559.50  1.0081E-003  
  560.00  9.2529E-004  
  560.50  8.7984E-004  
  561.00  8.2456E-004  
  561.50  7.4331E-004  
  562.00  6.7173E-004  
  562.50  6.5538E-004  
  563.00  7.4034E-004  
  563.50  8.5092E-004  
  564.00  9.8194E-004  
  564.50  1.1172E-003  
  565.00  1.3441E-003  
  565.50  1.8588E-003  
  566.00  2.6982E-003  
  566.50  3.6887E-003  
  567.00  4.4654E-003  
  567.50  4.8926E-003  
  568.00  5.0560E-003  
  568.50  5.0471E-003  
  569.00  4.9410E-003  
  569.50  4.8764E-003  
  570.00  4.9063E-003  
  570.50  4.9341E-003  
  571.00  4.6568E-003  
  571.50  4.0134E-003  
  572.00  3.1168E-003  
  572.50  2.2292E-003  
  573.00  1.6135E-003  
  573.50  1.2998E-003  
  574.00  1.3106E-003  
  574.50  1.8879E-003  
  575.00  3.8264E-003  
  575.50  7.8301E-003  
  576.00  1.3101E-002  
  576.50  1.6840E-002  
  577.00  1.7578E-002  
  577.50  1.6493E-002  
  578.00  1.6264E-002  
  578.50  1.7134E-002  
  579.00  1.6472E-002  
  579.50  1.2923E-002  
  580.00  8.2122E-003  
  580.50  4.4708E-003  
  581.00  2.5381E-003  
  581.50  1.6171E-003  
  582.00  1.2162E-003  
  582.50  1.0063E-003  
  583.00  8.9250E-004  
  583.50  8.3233E-004  
  584.00  7.9771E-004  
  584.50  7.8761E-004  
  585.00  7.9216E-004  
  585.50  8.3475E-004  
  586.00  9.2412E-004  
  586.50  1.3001E-003  
  587.00  2.4789E-003  
  587.50  5.4220E-003  
  588.00  1.0432E-002  
  588.50  1.6177E-002  
  589.00  1.9671E-002  
  589.50  1.9504E-002  
  590.00  1.5737E-002  
  590.50  1.1059E-002  
  591.00  7.3268E-003  
  591.50  5.1007E-003  
  592.00  3.9150E-003  
  592.50  3.2532E-003  
  593.00  2.7622E-003  
  593.50  2.4162E-003  
  594.00  2.1567E-003  
  594.50  2.0008E-003  
  595.00  1.8967E-003  
  595.50  1.8341E-003  
  596.00  1.7845E-003  
  596.50  1.7521E-003  
  597.00  1.6547E-003  
  597.50  1.5622E-003  
  598.00  1.4986E-003  
  598.50  1.4991E-003  
  599.00  1.4583E-003  
  599.50  1.3328E-003  
  600.00  1.1656E-003  
  600.50  1.0728E-003  
  601.00  1.0459E-003  
  601.50  1.0758E-003  
  602.00  1.0906E-003  
  602.50  1.0955E-003  
  603.00  1.0619E-003  
  603.50  9.8953E-004  
  604.00  8.9932E-004  
  604.50  8.1762E-004  
  605.00  7.3642E-004  
  605.50  6.6538E-004  
  606.00  6.2953E-004  
  606.50  6.4611E-004  
  607.00  7.0520E-004  
  607.50  7.3937E-004  
  608.00  7.5843E-004  
  608.50  7.7046E-004  
  609.00  7.9062E-004  
  609.50  8.0266E-004  
  610.00  8.2470E-004  
  610.50  7.8168E-004  
  611.00  7.5106E-004  
  611.50  7.1932E-004  
  612.00  6.9783E-004  
  612.50  6.6440E-004  
  613.00  6.2461E-004  
  613.50  6.2827E-004  
  614.00  6.7691E-004  
  614.50  7.7321E-004  
  615.00  8.4880E-004  
  615.50  9.0397E-004  
  616.00  9.1705E-004  
  616.50  8.9834E-004  
  617.00  8.9659E-004  
  617.50  9.0059E-004  
  618.00  9.5554E-004  
  618.50  9.9673E-004  
  619.00  1.0860E-003  
  619.50  1.3271E-003  
  620.00  1.7461E-003  
  620.50  2.1486E-003  
  621.00  2.1649E-003  
  621.50  1.8248E-003  
  622.00  1.3697E-003  
  622.50  1.3081E-003  
  623.00  1.6653E-003  
  623.50  2.1344E-003  
  624.00  2.3392E-003  
  624.50  2.2309E-003  
  625.00  2.1136E-003  
  625.50  2.0095E-003  
  626.00  1.8448E-003  
  626.50  1.5273E-003  
  627.00  1.2444E-003  
  627.50  1.0759E-003  
  628.00  1.0112E-003  
  628.50  1.0321E-003  
  629.00  1.3134E-003  
  629.50  1.9160E-003  
  630.00  2.6342E-003  
  630.50  2.9018E-003  
  631.00  2.4497E-003  
  631.50  1.6208E-003  
  632.00  9.6757E-004  
  632.50  7.2401E-004  
  633.00  6.6666E-004  
  633.50  6.6530E-004  
  634.00  6.3878E-004  
  634.50  5.8639E-004  
  635.00  5.4664E-004  
  635.50  5.3803E-004  
  636.00  6.2516E-004  
  636.50  7.0985E-004  
  637.00  8.2932E-004  
  637.50  8.8505E-004  
  638.00  8.3424E-004  
  638.50  7.1915E-004  
  639.00  5.7720E-004  
  639.50  5.7690E-004  
  640.00  6.7503E-004  
  640.50  8.4790E-004  
  641.00  9.3332E-004  
  641.50  8.9221E-004  
  642.00  7.4832E-004  
  642.50  6.0320E-004  
  643.00  4.9219E-004  
  643.50  4.5311E-004  
  644.00  4.7257E-004  
  644.50  5.4864E-004  
  645.00  6.5122E-004  
  645.50  7.5787E-004  
  646.00  7.7439E-004  
  646.50  7.1328E-004  
  647.00  6.2675E-004  
  647.50  5.4130E-004  
  648.00  5.3521E-004  
  648.50  5.1116E-004  
  649.00  4.9262E-004  
  649.50  4.2704E-004  
  650.00  3.7916E-004  
  650.50  4.4119E-004  
  651.00  4.9507E-004  
  651.50  5.2821E-004  
  652.00  4.9247E-004  
  652.50  5.0769E-004  
  653.00  5.3907E-004  
  653.50  5.5381E-004  
  654.00  5.3204E-004  
  654.50  5.3389E-004  
  655.00  5.1005E-004  
  655.50  4.6366E-004  
  656.00  4.0056E-004  
  656.50  4.0534E-004  
  657.00  4.5394E-004  
  657.50  5.4816E-004  
  658.00  6.5662E-004  
  658.50  7.5189E-004  
  659.00  7.5891E-004  
  659.50  7.0372E-004  
  660.00  6.3643E-004  
  660.50  5.9691E-004  
  661.00  5.6236E-004  
  661.50  4.8543E-004  
  662.00  4.0516E-004  
  662.50  3.0388E-004  
  663.00  2.9332E-004  
  663.50  3.0823E-004  
  664.00  3.1478E-004  
  664.50  3.6197E-004  
  665.00  4.1169E-004  
  665.50  5.0836E-004  
  666.00  5.3074E-004  
  666.50  5.4001E-004  
  667.00  5.1161E-004  
  667.50  4.3904E-004  
  668.00  3.3447E-004  
  668.50  3.0908E-004  
  669.00  4.4467E-004  
  669.50  7.6308E-004  
  670.00  1.1160E-003  
  670.50  1.3238E-003  
  671.00  1.2711E-003  
  671.50  1.0290E-003  
  672.00  7.5392E-004  
  672.50  6.0096E-004  
  673.00  5.2075E-004  
  673.50  5.1776E-004  
  674.00  4.7559E-004  
  674.50  4.3437E-004  
  675.00  3.8767E-004  
  675.50  3.2840E-004  
  676.00  3.4479E-004  
  676.50  3.6490E-004  
  677.00  4.3288E-004  
  677.50  4.5919E-004  
  678.00  4.3120E-004  
  678.50  4.3045E-004  
  679.00  4.5402E-004  
  679.50  5.1905E-004  
  680.00  5.3126E-004  
  680.50  5.2688E-004  
  681.00  5.3357E-004  
  681.50  5.6675E-004  
