
# From lspdd.org
# 
# Name: DEL EnergySmart PAR30 Domestique
# Indice spectral Valeur 
# MSI 0.24 
# SLI 0.44 
# IPI 0.65 
# Pourcentage de bleu 15.0 
# Caractéristique Valeur 
# CCT calculée (K) 2591 
# CCT du fabricant (K) 2700 
# Tension (V) ND 
# Puissance (W) 10.0 
# Efficacité lumineuse (Lum/W) 45.0 
#
# Image: '/app/system/img_2s/2497/medium_image2.JPG?1413485946'
# Image: '/app/system/img_1s/2497/medium_image1.JPG?1413485950'
# 

  273.00  0.0000E+000  
  273.50  0.0000E+000  
  274.00  0.0000E+000  
  274.50  0.0000E+000  
  275.00  0.0000E+000  
  275.50  0.0000E+000  
  276.00  0.0000E+000  
  276.50  0.0000E+000  
  277.00  0.0000E+000  
  277.50  0.0000E+000  
  278.00  0.0000E+000  
  278.50  0.0000E+000  
  279.00  0.0000E+000  
  279.50  0.0000E+000  
  280.00  0.0000E+000  
  280.50  0.0000E+000  
  281.00  0.0000E+000  
  281.50  0.0000E+000  
  282.00  0.0000E+000  
  282.50  0.0000E+000  
  283.00  0.0000E+000  
  283.50  0.0000E+000  
  284.00  0.0000E+000  
  284.50  0.0000E+000  
  285.00  0.0000E+000  
  285.50  0.0000E+000  
  286.00  0.0000E+000  
  286.50  0.0000E+000  
  287.00  0.0000E+000  
  287.50  0.0000E+000  
  288.00  0.0000E+000  
  288.50  0.0000E+000  
  289.00  0.0000E+000  
  289.50  0.0000E+000  
  290.00  0.0000E+000  
  290.50  0.0000E+000  
  291.00  0.0000E+000  
  291.50  0.0000E+000  
  292.00  0.0000E+000  
  292.50  0.0000E+000  
  293.00  0.0000E+000  
  293.50  0.0000E+000  
  294.00  0.0000E+000  
  294.50  0.0000E+000  
  295.00  0.0000E+000  
  295.50  0.0000E+000  
  296.00  0.0000E+000  
  296.50  0.0000E+000  
  297.00  0.0000E+000  
  297.50  0.0000E+000  
  298.00  0.0000E+000  
  298.50  0.0000E+000  
  299.00  0.0000E+000  
  299.50  0.0000E+000  
  300.00  0.0000E+000  
  300.50  0.0000E+000  
  301.00  0.0000E+000  
  301.50  0.0000E+000  
  302.00  0.0000E+000  
  302.50  0.0000E+000  
  303.00  0.0000E+000  
  303.50  0.0000E+000  
  304.00  9.5527E-006  
  304.50  2.9647E-005  
  305.00  2.1769E-006  
  305.50  1.6170E-006  
  306.00  0.0000E+000  
  306.50  0.0000E+000  
  307.00  0.0000E+000  
  307.50  0.0000E+000  
  308.00  0.0000E+000  
  308.50  0.0000E+000  
  309.00  0.0000E+000  
  309.50  0.0000E+000  
  310.00  0.0000E+000  
  310.50  0.0000E+000  
  311.00  0.0000E+000  
  311.50  4.8735E-006  
  312.00  2.3906E-005  
  312.50  0.0000E+000  
  313.00  0.0000E+000  
  313.50  0.0000E+000  
  314.00  0.0000E+000  
  314.50  0.0000E+000  
  315.00  0.0000E+000  
  315.50  0.0000E+000  
  316.00  5.7050E-005  
  316.50  6.7826E-005  
  317.00  2.9208E-005  
  317.50  2.1261E-005  
  318.00  3.2723E-006  
  318.50  0.0000E+000  
  319.00  0.0000E+000  
  319.50  0.0000E+000  
  320.00  0.0000E+000  
  320.50  0.0000E+000  
  321.00  0.0000E+000  
  321.50  0.0000E+000  
  322.00  0.0000E+000  
  322.50  0.0000E+000  
  323.00  0.0000E+000  
  323.50  0.0000E+000  
  324.00  0.0000E+000  
  324.50  0.0000E+000  
  325.00  0.0000E+000  
  325.50  0.0000E+000  
  326.00  0.0000E+000  
  326.50  0.0000E+000  
  327.00  0.0000E+000  
  327.50  0.0000E+000  
  328.00  0.0000E+000  
  328.50  0.0000E+000  
  329.00  0.0000E+000  
  329.50  0.0000E+000  
  330.00  0.0000E+000  
  330.50  0.0000E+000  
  331.00  3.6737E-006  
  331.50  6.2914E-005  
  332.00  8.4058E-005  
  332.50  8.3072E-005  
  333.00  5.4773E-005  
  333.50  1.7920E-005  
  334.00  9.8512E-006  
  334.50  1.2342E-005  
  335.00  8.5855E-006  
  335.50  3.2783E-006  
  336.00  1.6149E-008  
  336.50  1.3549E-005  
  337.00  9.8890E-006  
  337.50  1.2402E-005  
  338.00  0.0000E+000  
  338.50  0.0000E+000  
  339.00  0.0000E+000  
  339.50  0.0000E+000  
  340.00  0.0000E+000  
  340.50  0.0000E+000  
  341.00  1.7220E-005  
  341.50  5.2942E-005  
  342.00  4.6655E-005  
  342.50  9.2608E-006  
  343.00  0.0000E+000  
  343.50  0.0000E+000  
  344.00  0.0000E+000  
  344.50  0.0000E+000  
  345.00  0.0000E+000  
  345.50  0.0000E+000  
  346.00  0.0000E+000  
  346.50  0.0000E+000  
  347.00  0.0000E+000  
  347.50  0.0000E+000  
  348.00  6.6836E-007  
  348.50  3.3905E-005  
  349.00  2.5916E-005  
  349.50  1.0409E-005  
  350.00  7.9588E-006  
  350.50  1.1017E-005  
  351.00  3.8602E-005  
  351.50  5.7394E-005  
  352.00  4.0010E-005  
  352.50  2.0974E-005  
  353.00  7.4440E-006  
  353.50  0.0000E+000  
  354.00  0.0000E+000  
  354.50  0.0000E+000  
  355.00  0.0000E+000  
  355.50  0.0000E+000  
  356.00  0.0000E+000  
  356.50  0.0000E+000  
  357.00  0.0000E+000  
  357.50  0.0000E+000  
  358.00  0.0000E+000  
  358.50  2.3668E-006  
  359.00  1.5619E-005  
  359.50  4.3888E-005  
  360.00  6.0464E-005  
  360.50  7.2297E-005  
  361.00  7.2737E-005  
  361.50  1.9394E-005  
  362.00  0.0000E+000  
  362.50  0.0000E+000  
  363.00  0.0000E+000  
  363.50  0.0000E+000  
  364.00  0.0000E+000  
  364.50  0.0000E+000  
  365.00  1.6920E-005  
  365.50  5.4341E-005  
  366.00  1.9618E-005  
  366.50  0.0000E+000  
  367.00  0.0000E+000  
  367.50  0.0000E+000  
  368.00  0.0000E+000  
  368.50  1.5530E-005  
  369.00  7.6116E-005  
  369.50  1.0241E-004  
  370.00  6.7937E-005  
  370.50  4.4649E-005  
  371.00  6.9262E-006  
  371.50  1.0087E-006  
  372.00  9.8042E-006  
  372.50  9.2044E-006  
  373.00  1.5350E-005  
  373.50  9.7659E-006  
  374.00  9.3945E-006  
  374.50  0.0000E+000  
  375.00  0.0000E+000  
  375.50  0.0000E+000  
  376.00  0.0000E+000  
  376.50  0.0000E+000  
  377.00  0.0000E+000  
  377.50  0.0000E+000  
  378.00  0.0000E+000  
  378.50  0.0000E+000  
  379.00  0.0000E+000  
  379.50  3.1372E-007  
  380.00  2.8080E-005  
  380.50  5.5075E-005  
  381.00  1.4161E-004  
  381.50  1.1497E-004  
  382.00  6.1379E-005  
  382.50  1.4490E-005  
  383.00  0.0000E+000  
  383.50  0.0000E+000  
  384.00  1.7120E-005  
  384.50  3.4860E-005  
  385.00  8.0167E-005  
  385.50  1.5927E-004  
  386.00  1.7074E-004  
  386.50  1.5779E-004  
  387.00  1.0917E-004  
  387.50  7.1117E-005  
  388.00  5.5944E-005  
  388.50  5.9453E-005  
  389.00  1.7716E-005  
  389.50  2.0536E-006  
  390.00  1.6043E-005  
  390.50  3.5786E-005  
  391.00  1.1620E-004  
  391.50  1.6784E-004  
  392.00  1.5589E-004  
  392.50  1.0534E-004  
  393.00  7.1763E-005  
  393.50  6.3133E-005  
  394.00  7.9787E-005  
  394.50  1.0043E-004  
  395.00  6.0342E-005  
  395.50  4.0817E-005  
  396.00  2.1899E-005  
  396.50  2.5004E-005  
  397.00  4.0284E-005  
  397.50  4.7734E-005  
  398.00  1.0213E-004  
  398.50  1.3358E-004  
  399.00  1.2779E-004  
  399.50  1.3516E-004  
  400.00  1.4423E-004  
  400.50  1.7311E-004  
  401.00  2.0847E-004  
  401.50  1.8702E-004  
  402.00  1.7451E-004  
  402.50  1.6697E-004  
  403.00  1.5981E-004  
  403.50  1.4278E-004  
  404.00  1.5695E-004  
  404.50  2.0524E-004  
  405.00  2.2823E-004  
  405.50  1.9675E-004  
  406.00  1.5758E-004  
  406.50  1.5887E-004  
  407.00  1.9956E-004  
  407.50  2.4569E-004  
  408.00  2.6451E-004  
  408.50  2.2487E-004  
  409.00  1.9422E-004  
  409.50  1.6625E-004  
  410.00  1.6513E-004  
  410.50  2.2436E-004  
  411.00  2.9292E-004  
  411.50  3.6630E-004  
  412.00  4.2486E-004  
  412.50  4.4152E-004  
  413.00  4.1459E-004  
  413.50  3.8688E-004  
  414.00  3.6930E-004  
  414.50  4.0297E-004  
  415.00  4.3411E-004  
  415.50  5.1595E-004  
  416.00  6.0128E-004  
  416.50  6.6972E-004  
  417.00  7.2731E-004  
  417.50  7.4602E-004  
  418.00  7.8950E-004  
  418.50  8.1026E-004  
  419.00  8.6141E-004  
  419.50  9.2763E-004  
  420.00  1.0240E-003  
  420.50  1.1510E-003  
  421.00  1.2238E-003  
  421.50  1.2846E-003  
  422.00  1.3555E-003  
  422.50  1.4356E-003  
  423.00  1.5112E-003  
  423.50  1.6183E-003  
  424.00  1.7235E-003  
  424.50  1.8820E-003  
  425.00  2.0496E-003  
  425.50  2.1919E-003  
  426.00  2.3191E-003  
  426.50  2.4140E-003  
  427.00  2.5422E-003  
  427.50  2.7263E-003  
  428.00  2.8999E-003  
  428.50  3.0716E-003  
  429.00  3.2544E-003  
  429.50  3.4346E-003  
  430.00  3.6568E-003  
  430.50  3.8658E-003  
  431.00  4.0905E-003  
  431.50  4.3310E-003  
  432.00  4.5721E-003  
  432.50  4.8266E-003  
  433.00  5.0642E-003  
  433.50  5.3259E-003  
  434.00  5.6407E-003  
  434.50  5.9692E-003  
  435.00  6.2989E-003  
  435.50  6.6555E-003  
  436.00  7.0127E-003  
  436.50  7.3937E-003  
  437.00  7.7461E-003  
  437.50  8.0889E-003  
  438.00  8.5155E-003  
  438.50  8.9185E-003  
  439.00  9.3602E-003  
  439.50  9.7469E-003  
  440.00  1.0193E-002  
  440.50  1.0768E-002  
  441.00  1.1334E-002  
  441.50  1.1881E-002  
  442.00  1.2385E-002  
  442.50  1.2903E-002  
  443.00  1.3583E-002  
  443.50  1.4321E-002  
  444.00  1.5070E-002  
  444.50  1.5787E-002  
  445.00  1.6496E-002  
  445.50  1.7270E-002  
  446.00  1.8072E-002  
  446.50  1.8973E-002  
  447.00  1.9995E-002  
  447.50  2.1030E-002  
  448.00  2.2081E-002  
  448.50  2.3036E-002  
  449.00  2.3999E-002  
  449.50  2.5030E-002  
  450.00  2.6126E-002  
  450.50  2.7166E-002  
  451.00  2.8135E-002  
  451.50  2.9063E-002  
  452.00  2.9884E-002  
  452.50  3.0659E-002  
  453.00  3.1245E-002  
  453.50  3.1623E-002  
  454.00  3.2023E-002  
  454.50  3.2297E-002  
  455.00  3.2720E-002  
  455.50  3.2964E-002  
  456.00  3.2965E-002  
  456.50  3.2890E-002  
  457.00  3.2655E-002  
  457.50  3.2425E-002  
  458.00  3.2097E-002  
  458.50  3.1563E-002  
  459.00  3.0953E-002  
  459.50  3.0313E-002  
  460.00  2.9661E-002  
  460.50  2.8942E-002  
  461.00  2.8164E-002  
  461.50  2.7279E-002  
  462.00  2.6491E-002  
  462.50  2.5789E-002  
  463.00  2.5145E-002  
  463.50  2.4452E-002  
  464.00  2.3804E-002  
  464.50  2.3214E-002  
  465.00  2.2680E-002  
  465.50  2.2160E-002  
  466.00  2.1544E-002  
  466.50  2.0976E-002  
  467.00  2.0496E-002  
  467.50  2.0131E-002  
  468.00  1.9754E-002  
  468.50  1.9381E-002  
  469.00  1.9024E-002  
  469.50  1.8733E-002  
  470.00  1.8460E-002  
  470.50  1.8198E-002  
  471.00  1.7889E-002  
  471.50  1.7589E-002  
  472.00  1.7311E-002  
  472.50  1.7092E-002  
  473.00  1.6902E-002  
  473.50  1.6742E-002  
  474.00  1.6567E-002  
  474.50  1.6265E-002  
  475.00  1.5946E-002  
  475.50  1.5604E-002  
  476.00  1.5282E-002  
  476.50  1.5012E-002  
  477.00  1.4781E-002  
  477.50  1.4543E-002  
  478.00  1.4266E-002  
  478.50  1.4017E-002  
  479.00  1.3813E-002  
  479.50  1.3606E-002  
  480.00  1.3456E-002  
  480.50  1.3264E-002  
  481.00  1.3042E-002  
  481.50  1.2826E-002  
  482.00  1.2600E-002  
  482.50  1.2437E-002  
  483.00  1.2331E-002  
  483.50  1.2250E-002  
  484.00  1.2178E-002  
  484.50  1.2101E-002  
  485.00  1.1985E-002  
  485.50  1.1858E-002  
  486.00  1.1763E-002  
  486.50  1.1752E-002  
  487.00  1.1778E-002  
  487.50  1.1768E-002  
  488.00  1.1763E-002  
  488.50  1.1779E-002  
  489.00  1.1791E-002  
  489.50  1.1795E-002  
  490.00  1.1793E-002  
  490.50  1.1843E-002  
  491.00  1.1906E-002  
  491.50  1.1948E-002  
  492.00  1.1959E-002  
  492.50  1.2009E-002  
  493.00  1.2120E-002  
  493.50  1.2211E-002  
  494.00  1.2324E-002  
  494.50  1.2418E-002  
  495.00  1.2519E-002  
  495.50  1.2635E-002  
  496.00  1.2726E-002  
  496.50  1.2897E-002  
  497.00  1.3103E-002  
  497.50  1.3335E-002  
  498.00  1.3574E-002  
  498.50  1.3782E-002  
  499.00  1.4030E-002  
  499.50  1.4300E-002  
  500.00  1.4603E-002  
  500.50  1.4857E-002  
  501.00  1.5101E-002  
  501.50  1.5363E-002  
  502.00  1.5703E-002  
  502.50  1.6092E-002  
  503.00  1.6458E-002  
  503.50  1.6772E-002  
  504.00  1.7115E-002  
  504.50  1.7452E-002  
  505.00  1.7819E-002  
  505.50  1.8195E-002  
  506.00  1.8571E-002  
  506.50  1.8935E-002  
  507.00  1.9338E-002  
  507.50  1.9720E-002  
  508.00  2.0126E-002  
  508.50  2.0488E-002  
  509.00  2.0888E-002  
  509.50  2.1308E-002  
  510.00  2.1752E-002  
  510.50  2.2197E-002  
  511.00  2.2660E-002  
  511.50  2.3132E-002  
  512.00  2.3657E-002  
  512.50  2.4097E-002  
  513.00  2.4564E-002  
  513.50  2.5003E-002  
  514.00  2.5459E-002  
  514.50  2.5936E-002  
  515.00  2.6376E-002  
  515.50  2.6845E-002  
  516.00  2.7332E-002  
  516.50  2.7808E-002  
  517.00  2.8295E-002  
  517.50  2.8760E-002  
  518.00  2.9236E-002  
  518.50  2.9721E-002  
  519.00  3.0197E-002  
  519.50  3.0686E-002  
  520.00  3.1172E-002  
  520.50  3.1620E-002  
  521.00  3.2063E-002  
  521.50  3.2473E-002  
  522.00  3.2927E-002  
  522.50  3.3456E-002  
  523.00  3.3986E-002  
  523.50  3.4554E-002  
  524.00  3.5063E-002  
  524.50  3.5523E-002  
  525.00  3.5942E-002  
  525.50  3.6346E-002  
  526.00  3.6806E-002  
  526.50  3.7269E-002  
  527.00  3.7723E-002  
  527.50  3.8125E-002  
  528.00  3.8549E-002  
  528.50  3.9042E-002  
  529.00  3.9544E-002  
  529.50  4.0038E-002  
  530.00  4.0448E-002  
  530.50  4.0790E-002  
  531.00  4.1165E-002  
  531.50  4.1520E-002  
  532.00  4.1914E-002  
  532.50  4.2318E-002  
  533.00  4.2753E-002  
  533.50  4.3221E-002  
  534.00  4.3627E-002  
  534.50  4.4028E-002  
  535.00  4.4397E-002  
  535.50  4.4777E-002  
  536.00  4.5185E-002  
  536.50  4.5550E-002  
  537.00  4.5924E-002  
  537.50  4.6275E-002  
  538.00  4.6679E-002  
  538.50  4.7110E-002  
  539.00  4.7604E-002  
  539.50  4.7969E-002  
  540.00  4.8375E-002  
  540.50  4.8796E-002  
  541.00  4.9265E-002  
  541.50  4.9703E-002  
  542.00  5.0037E-002  
  542.50  5.0441E-002  
  543.00  5.0895E-002  
  543.50  5.1327E-002  
  544.00  5.1737E-002  
  544.50  5.2092E-002  
  545.00  5.2505E-002  
  545.50  5.2913E-002  
  546.00  5.3296E-002  
  546.50  5.3746E-002  
  547.00  5.4159E-002  
  547.50  5.4553E-002  
  548.00  5.4939E-002  
  548.50  5.5366E-002  
  549.00  5.5861E-002  
  549.50  5.6271E-002  
  550.00  5.6622E-002  
  550.50  5.7097E-002  
  551.00  5.7544E-002  
  551.50  5.8036E-002  
  552.00  5.8454E-002  
  552.50  5.8872E-002  
  553.00  5.9345E-002  
  553.50  5.9781E-002  
  554.00  6.0206E-002  
  554.50  6.0617E-002  
  555.00  6.0975E-002  
  555.50  6.1406E-002  
  556.00  6.1956E-002  
  556.50  6.2523E-002  
  557.00  6.2956E-002  
  557.50  6.3336E-002  
  558.00  6.3746E-002  
  558.50  6.4287E-002  
  559.00  6.4905E-002  
  559.50  6.5501E-002  
  560.00  6.6111E-002  
  560.50  6.6491E-002  
  561.00  6.6741E-002  
  561.50  6.7025E-002  
  562.00  6.7458E-002  
  562.50  6.8117E-002  
  563.00  6.8718E-002  
  563.50  6.9265E-002  
  564.00  6.9715E-002  
  564.50  7.0136E-002  
  565.00  7.0597E-002  
  565.50  7.1087E-002  
  566.00  7.1534E-002  
  566.50  7.2061E-002  
  567.00  7.2553E-002  
  567.50  7.3022E-002  
  568.00  7.3513E-002  
  568.50  7.3969E-002  
  569.00  7.4427E-002  
  569.50  7.4889E-002  
  570.00  7.5283E-002  
  570.50  7.5706E-002  
  571.00  7.6168E-002  
  571.50  7.6693E-002  
  572.00  7.7311E-002  
  572.50  7.7808E-002  
  573.00  7.8302E-002  
  573.50  7.8849E-002  
  574.00  7.9394E-002  
  574.50  7.9838E-002  
  575.00  8.0227E-002  
  575.50  8.0726E-002  
  576.00  8.1267E-002  
  576.50  8.1800E-002  
  577.00  8.2128E-002  
  577.50  8.2525E-002  
  578.00  8.2923E-002  
  578.50  8.3457E-002  
  579.00  8.3983E-002  
  579.50  8.4459E-002  
  580.00  8.4951E-002  
  580.50  8.5359E-002  
  581.00  8.5737E-002  
  581.50  8.6113E-002  
  582.00  8.6641E-002  
  582.50  8.7182E-002  
  583.00  8.7612E-002  
  583.50  8.7914E-002  
  584.00  8.8219E-002  
  584.50  8.8543E-002  
  585.00  8.8825E-002  
  585.50  8.9134E-002  
  586.00  8.9516E-002  
  586.50  9.0017E-002  
  587.00  9.0517E-002  
  587.50  9.0915E-002  
  588.00  9.1274E-002  
  588.50  9.1538E-002  
  589.00  9.1935E-002  
  589.50  9.2238E-002  
  590.00  9.2723E-002  
  590.50  9.3153E-002  
  591.00  9.3518E-002  
  591.50  9.3682E-002  
  592.00  9.3813E-002  
  592.50  9.4066E-002  
  593.00  9.4484E-002  
  593.50  9.4743E-002  
  594.00  9.4962E-002  
  594.50  9.5125E-002  
  595.00  9.5320E-002  
  595.50  9.5549E-002  
  596.00  9.5681E-002  
  596.50  9.5885E-002  
  597.00  9.6061E-002  
  597.50  9.6252E-002  
  598.00  9.6432E-002  
  598.50  9.6591E-002  
  599.00  9.6674E-002  
  599.50  9.6709E-002  
  600.00  9.6771E-002  
  600.50  9.6946E-002  
  601.00  9.7159E-002  
  601.50  9.7261E-002  
  602.00  9.7293E-002  
  602.50  9.7297E-002  
  603.00  9.7299E-002  
  603.50  9.7266E-002  
  604.00  9.7268E-002  
  604.50  9.7228E-002  
  605.00  9.7176E-002  
  605.50  9.7085E-002  
  606.00  9.7074E-002  
  606.50  9.7065E-002  
  607.00  9.7020E-002  
  607.50  9.7041E-002  
  608.00  9.7053E-002  
  608.50  9.7157E-002  
  609.00  9.7071E-002  
  609.50  9.7127E-002  
  610.00  9.6986E-002  
  610.50  9.6843E-002  
  611.00  9.6615E-002  
  611.50  9.6392E-002  
  612.00  9.6418E-002  
  612.50  9.6333E-002  
  613.00  9.6274E-002  
  613.50  9.6109E-002  
  614.00  9.5993E-002  
  614.50  9.5907E-002  
  615.00  9.5547E-002  
  615.50  9.5155E-002  
  616.00  9.4846E-002  
  616.50  9.4752E-002  
  617.00  9.4548E-002  
  617.50  9.4296E-002  
  618.00  9.3886E-002  
  618.50  9.3607E-002  
  619.00  9.3197E-002  
  619.50  9.2943E-002  
  620.00  9.2594E-002  
  620.50  9.2248E-002  
  621.00  9.1860E-002  
  621.50  9.1491E-002  
  622.00  9.1153E-002  
  622.50  9.0807E-002  
  623.00  9.0406E-002  
  623.50  9.0040E-002  
  624.00  8.9660E-002  
  624.50  8.9223E-002  
  625.00  8.8757E-002  
  625.50  8.8287E-002  
  626.00  8.7916E-002  
  626.50  8.7554E-002  
  627.00  8.7202E-002  
  627.50  8.6907E-002  
  628.00  8.6599E-002  
  628.50  8.6082E-002  
  629.00  8.5555E-002  
  629.50  8.4950E-002  
  630.00  8.4664E-002  
  630.50  8.4330E-002  
  631.00  8.3980E-002  
  631.50  8.3515E-002  
  632.00  8.2847E-002  
  632.50  8.2296E-002  
  633.00  8.1723E-002  
  633.50  8.1272E-002  
  634.00  8.0784E-002  
  634.50  8.0303E-002  
  635.00  7.9807E-002  
  635.50  7.9095E-002  
  636.00  7.8353E-002  
  636.50  7.7659E-002  
  637.00  7.7266E-002  
  637.50  7.6992E-002  
  638.00  7.6638E-002  
  638.50  7.6125E-002  
  639.00  7.5541E-002  
  639.50  7.4941E-002  
  640.00  7.4339E-002  
  640.50  7.3611E-002  
  641.00  7.3040E-002  
  641.50  7.2563E-002  
  642.00  7.2257E-002  
  642.50  7.1725E-002  
  643.00  7.1044E-002  
  643.50  7.0317E-002  
  644.00  6.9770E-002  
  644.50  6.9308E-002  
  645.00  6.8789E-002  
  645.50  6.8067E-002  
  646.00  6.7348E-002  
  646.50  6.6629E-002  
  647.00  6.6076E-002  
  647.50  6.5467E-002  
  648.00  6.4936E-002  
  648.50  6.4495E-002  
  649.00  6.4061E-002  
  649.50  6.3455E-002  
  650.00  6.2690E-002  
  650.50  6.1992E-002  
  651.00  6.1391E-002  
  651.50  6.0857E-002  
  652.00  6.0349E-002  
  652.50  5.9797E-002  
  653.00  5.9237E-002  
  653.50  5.8620E-002  
  654.00  5.8039E-002  
  654.50  5.7439E-002  
  655.00  5.6860E-002  
  655.50  5.6321E-002  
  656.00  5.5896E-002  
  656.50  5.5383E-002  
  657.00  5.4793E-002  
  657.50  5.4138E-002  
  658.00  5.3557E-002  
  658.50  5.3054E-002  
  659.00  5.2521E-002  
  659.50  5.1997E-002  
  660.00  5.1336E-002  
  660.50  5.0657E-002  
  661.00  4.9944E-002  
  661.50  4.9334E-002  
  662.00  4.8775E-002  
  662.50  4.8430E-002  
  663.00  4.8076E-002  
  663.50  4.7629E-002  
  664.00  4.6905E-002  
  664.50  4.6199E-002  
  665.00  4.5586E-002  
  665.50  4.5033E-002  
  666.00  4.4552E-002  
  666.50  4.4052E-002  
  667.00  4.3566E-002  
  667.50  4.3083E-002  
  668.00  4.2675E-002  
  668.50  4.2214E-002  
  669.00  4.1649E-002  
  669.50  4.1004E-002  
  670.00  4.0388E-002  
  670.50  3.9793E-002  
  671.00  3.9260E-002  
  671.50  3.8902E-002  
  672.00  3.8539E-002  
  672.50  3.8078E-002  
  673.00  3.7513E-002  
  673.50  3.6970E-002  
  674.00  3.6513E-002  
  674.50  3.6053E-002  
  675.00  3.5588E-002  
  675.50  3.5117E-002  
  676.00  3.4631E-002  
  676.50  3.4256E-002  
  677.00  3.3897E-002  
  677.50  3.3552E-002  
  678.00  3.3062E-002  
  678.50  3.2477E-002  
  679.00  3.1907E-002  
  679.50  3.1494E-002  
