
# From lspdd.org
# 
# Name: DEL Philips Streetview-3white-board Lampadaire
# Indice spectral Valeur 
# MSI 0.46 
# SLI 0.60 
# IPI 0.64 
# Pourcentage de bleu 29.6 
# Caractéristique Valeur 
# CCT calculée (K) 3811 
# CCT du fabricant (K) 4000 
# Tension (V) ND 
# Puissance (W) 90.0 
# Efficacité lumineuse (Lum/W) 95.0 
#
# Image: '/app/system/img_2s/2503/medium_image2.jpg?1413485984'
# Image: '/app/system/img_1s/2503/medium_image1.jpg?1413485989'
# 

  273.00  0.0000E+000  
  273.50  0.0000E+000  
  274.00  0.0000E+000  
  274.50  0.0000E+000  
  275.00  0.0000E+000  
  275.50  0.0000E+000  
  276.00  0.0000E+000  
  276.50  0.0000E+000  
  277.00  0.0000E+000  
  277.50  0.0000E+000  
  278.00  0.0000E+000  
  278.50  0.0000E+000  
  279.00  0.0000E+000  
  279.50  0.0000E+000  
  280.00  0.0000E+000  
  280.50  0.0000E+000  
  281.00  0.0000E+000  
  281.50  0.0000E+000  
  282.00  0.0000E+000  
  282.50  0.0000E+000  
  283.00  0.0000E+000  
  283.50  0.0000E+000  
  284.00  0.0000E+000  
  284.50  0.0000E+000  
  285.00  0.0000E+000  
  285.50  0.0000E+000  
  286.00  0.0000E+000  
  286.50  0.0000E+000  
  287.00  0.0000E+000  
  287.50  0.0000E+000  
  288.00  0.0000E+000  
  288.50  0.0000E+000  
  289.00  0.0000E+000  
  289.50  0.0000E+000  
  290.00  0.0000E+000  
  290.50  0.0000E+000  
  291.00  0.0000E+000  
  291.50  0.0000E+000  
  292.00  0.0000E+000  
  292.50  0.0000E+000  
  293.00  0.0000E+000  
  293.50  0.0000E+000  
  294.00  0.0000E+000  
  294.50  0.0000E+000  
  295.00  0.0000E+000  
  295.50  0.0000E+000  
  296.00  0.0000E+000  
  296.50  0.0000E+000  
  297.00  0.0000E+000  
  297.50  0.0000E+000  
  298.00  0.0000E+000  
  298.50  0.0000E+000  
  299.00  0.0000E+000  
  299.50  0.0000E+000  
  300.00  0.0000E+000  
  300.50  0.0000E+000  
  301.00  0.0000E+000  
  301.50  0.0000E+000  
  302.00  0.0000E+000  
  302.50  0.0000E+000  
  303.00  1.8972E-005  
  303.50  1.7777E-005  
  304.00  2.8555E-006  
  304.50  0.0000E+000  
  305.00  0.0000E+000  
  305.50  0.0000E+000  
  306.00  0.0000E+000  
  306.50  0.0000E+000  
  307.00  0.0000E+000  
  307.50  0.0000E+000  
  308.00  0.0000E+000  
  308.50  0.0000E+000  
  309.00  0.0000E+000  
  309.50  0.0000E+000  
  310.00  0.0000E+000  
  310.50  0.0000E+000  
  311.00  0.0000E+000  
  311.50  0.0000E+000  
  312.00  1.4250E-005  
  312.50  4.3902E-005  
  313.00  5.6376E-005  
  313.50  1.6160E-005  
  314.00  0.0000E+000  
  314.50  0.0000E+000  
  315.00  0.0000E+000  
  315.50  0.0000E+000  
  316.00  0.0000E+000  
  316.50  0.0000E+000  
  317.00  0.0000E+000  
  317.50  0.0000E+000  
  318.00  0.0000E+000  
  318.50  0.0000E+000  
  319.00  0.0000E+000  
  319.50  0.0000E+000  
  320.00  0.0000E+000  
  320.50  0.0000E+000  
  321.00  0.0000E+000  
  321.50  0.0000E+000  
  322.00  0.0000E+000  
  322.50  0.0000E+000  
  323.00  0.0000E+000  
  323.50  0.0000E+000  
  324.00  0.0000E+000  
  324.50  0.0000E+000  
  325.00  5.6266E-007  
  325.50  0.0000E+000  
  326.00  0.0000E+000  
  326.50  0.0000E+000  
  327.00  0.0000E+000  
  327.50  0.0000E+000  
  328.00  0.0000E+000  
  328.50  0.0000E+000  
  329.00  0.0000E+000  
  329.50  0.0000E+000  
  330.00  0.0000E+000  
  330.50  0.0000E+000  
  331.00  0.0000E+000  
  331.50  0.0000E+000  
  332.00  0.0000E+000  
  332.50  0.0000E+000  
  333.00  0.0000E+000  
  333.50  0.0000E+000  
  334.00  0.0000E+000  
  334.50  0.0000E+000  
  335.00  0.0000E+000  
  335.50  0.0000E+000  
  336.00  0.0000E+000  
  336.50  0.0000E+000  
  337.00  0.0000E+000  
  337.50  0.0000E+000  
  338.00  0.0000E+000  
  338.50  0.0000E+000  
  339.00  0.0000E+000  
  339.50  0.0000E+000  
  340.00  0.0000E+000  
  340.50  0.0000E+000  
  341.00  0.0000E+000  
  341.50  0.0000E+000  
  342.00  0.0000E+000  
  342.50  0.0000E+000  
  343.00  0.0000E+000  
  343.50  0.0000E+000  
  344.00  0.0000E+000  
  344.50  0.0000E+000  
  345.00  0.0000E+000  
  345.50  0.0000E+000  
  346.00  0.0000E+000  
  346.50  0.0000E+000  
  347.00  0.0000E+000  
  347.50  0.0000E+000  
  348.00  0.0000E+000  
  348.50  0.0000E+000  
  349.00  0.0000E+000  
  349.50  0.0000E+000  
  350.00  0.0000E+000  
  350.50  0.0000E+000  
  351.00  0.0000E+000  
  351.50  0.0000E+000  
  352.00  0.0000E+000  
  352.50  0.0000E+000  
  353.00  1.1044E-005  
  353.50  5.4968E-005  
  354.00  5.4135E-005  
  354.50  2.7784E-005  
  355.00  4.1248E-006  
  355.50  0.0000E+000  
  356.00  0.0000E+000  
  356.50  0.0000E+000  
  357.00  0.0000E+000  
  357.50  0.0000E+000  
  358.00  0.0000E+000  
  358.50  0.0000E+000  
  359.00  0.0000E+000  
  359.50  0.0000E+000  
  360.00  0.0000E+000  
  360.50  6.3732E-006  
  361.00  4.6867E-006  
  361.50  3.8744E-005  
  362.00  5.3945E-005  
  362.50  1.1201E-005  
  363.00  0.0000E+000  
  363.50  0.0000E+000  
  364.00  0.0000E+000  
  364.50  1.6827E-005  
  365.00  9.5911E-006  
  365.50  1.6065E-005  
  366.00  1.9273E-005  
  366.50  5.6439E-005  
  367.00  9.2944E-005  
  367.50  9.6233E-005  
  368.00  1.0352E-004  
  368.50  5.4788E-005  
  369.00  4.5095E-005  
  369.50  6.8953E-006  
  370.00  0.0000E+000  
  370.50  3.5360E-007  
  371.00  1.8976E-005  
  371.50  6.7548E-005  
  372.00  1.2748E-004  
  372.50  1.5833E-004  
  373.00  1.6687E-004  
  373.50  1.3923E-004  
  374.00  6.7129E-005  
  374.50  1.7533E-005  
  375.00  0.0000E+000  
  375.50  5.1407E-006  
  376.00  7.9310E-005  
  376.50  9.6551E-005  
  377.00  9.4152E-005  
  377.50  3.4357E-005  
  378.00  1.1300E-007  
  378.50  8.1242E-006  
  379.00  1.3002E-005  
  379.50  0.0000E+000  
  380.00  0.0000E+000  
  380.50  0.0000E+000  
  381.00  2.4278E-006  
  381.50  6.4884E-005  
  382.00  1.3910E-004  
  382.50  1.8930E-004  
  383.00  1.5736E-004  
  383.50  1.1043E-004  
  384.00  3.8868E-005  
  384.50  2.6541E-005  
  385.00  2.8414E-005  
  385.50  8.1931E-005  
  386.00  1.3160E-004  
  386.50  1.5405E-004  
  387.00  1.8069E-004  
  387.50  1.6386E-004  
  388.00  1.0190E-004  
  388.50  4.1366E-005  
  389.00  3.4402E-005  
  389.50  2.1062E-005  
  390.00  6.4402E-005  
  390.50  5.9528E-005  
  391.00  9.2533E-005  
  391.50  1.4406E-004  
  392.00  1.9153E-004  
  392.50  2.2387E-004  
  393.00  1.9100E-004  
  393.50  1.3971E-004  
  394.00  1.0835E-004  
  394.50  8.2786E-005  
  395.00  1.2569E-004  
  395.50  1.7061E-004  
  396.00  2.3023E-004  
  396.50  2.4507E-004  
  397.00  2.1920E-004  
  397.50  2.2290E-004  
  398.00  2.9552E-004  
  398.50  3.6271E-004  
  399.00  3.7163E-004  
  399.50  3.5413E-004  
  400.00  2.9257E-004  
  400.50  3.1541E-004  
  401.00  3.7466E-004  
  401.50  3.8841E-004  
  402.00  4.0332E-004  
  402.50  4.0017E-004  
  403.00  4.1046E-004  
  403.50  4.6629E-004  
  404.00  5.0718E-004  
  404.50  5.4458E-004  
  405.00  5.4504E-004  
  405.50  5.8260E-004  
  406.00  6.3045E-004  
  406.50  7.1847E-004  
  407.00  8.3207E-004  
  407.50  9.1861E-004  
  408.00  1.0146E-003  
  408.50  1.0613E-003  
  409.00  1.1062E-003  
  409.50  1.1974E-003  
  410.00  1.3376E-003  
  410.50  1.5257E-003  
  411.00  1.6834E-003  
  411.50  1.8170E-003  
  412.00  1.9158E-003  
  412.50  1.9826E-003  
  413.00  2.1123E-003  
  413.50  2.2811E-003  
  414.00  2.5307E-003  
  414.50  2.7462E-003  
  415.00  2.9571E-003  
  415.50  3.2009E-003  
  416.00  3.4792E-003  
  416.50  3.8268E-003  
  417.00  4.2080E-003  
  417.50  4.5889E-003  
  418.00  4.9803E-003  
  418.50  5.3553E-003  
  419.00  5.7357E-003  
  419.50  6.2189E-003  
  420.00  6.7523E-003  
  420.50  7.3705E-003  
  421.00  7.9122E-003  
  421.50  8.4376E-003  
  422.00  8.9999E-003  
  422.50  9.6301E-003  
  423.00  1.0371E-002  
  423.50  1.1107E-002  
  424.00  1.1855E-002  
  424.50  1.2620E-002  
  425.00  1.3436E-002  
  425.50  1.4348E-002  
  426.00  1.5321E-002  
  426.50  1.6321E-002  
  427.00  1.7407E-002  
  427.50  1.8504E-002  
  428.00  1.9672E-002  
  428.50  2.0835E-002  
  429.00  2.2034E-002  
  429.50  2.3254E-002  
  430.00  2.4469E-002  
  430.50  2.5627E-002  
  431.00  2.6738E-002  
  431.50  2.7834E-002  
  432.00  2.8958E-002  
  432.50  3.0272E-002  
  433.00  3.1588E-002  
  433.50  3.2753E-002  
  434.00  3.3819E-002  
  434.50  3.4784E-002  
  435.00  3.5916E-002  
  435.50  3.7111E-002  
  436.00  3.8276E-002  
  436.50  3.9334E-002  
  437.00  4.0453E-002  
  437.50  4.1513E-002  
  438.00  4.2568E-002  
  438.50  4.3475E-002  
  439.00  4.4401E-002  
  439.50  4.5412E-002  
  440.00  4.6500E-002  
  440.50  4.7705E-002  
  441.00  4.8774E-002  
  441.50  4.9896E-002  
  442.00  5.1021E-002  
  442.50  5.2076E-002  
  443.00  5.3206E-002  
  443.50  5.4114E-002  
  444.00  5.4902E-002  
  444.50  5.5666E-002  
  445.00  5.6344E-002  
  445.50  5.6919E-002  
  446.00  5.7415E-002  
  446.50  5.7602E-002  
  447.00  5.7625E-002  
  447.50  5.7505E-002  
  448.00  5.7154E-002  
  448.50  5.6515E-002  
  449.00  5.5692E-002  
  449.50  5.4676E-002  
  450.00  5.3627E-002  
  450.50  5.2463E-002  
  451.00  5.1034E-002  
  451.50  4.9305E-002  
  452.00  4.7427E-002  
  452.50  4.5546E-002  
  453.00  4.3615E-002  
  453.50  4.1690E-002  
  454.00  3.9763E-002  
  454.50  3.7770E-002  
  455.00  3.6085E-002  
  455.50  3.4412E-002  
  456.00  3.2816E-002  
  456.50  3.1322E-002  
  457.00  2.9860E-002  
  457.50  2.8609E-002  
  458.00  2.7331E-002  
  458.50  2.6021E-002  
  459.00  2.4792E-002  
  459.50  2.3783E-002  
  460.00  2.2977E-002  
  460.50  2.2258E-002  
  461.00  2.1472E-002  
  461.50  2.0704E-002  
  462.00  2.0036E-002  
  462.50  1.9459E-002  
  463.00  1.8981E-002  
  463.50  1.8489E-002  
  464.00  1.7893E-002  
  464.50  1.7302E-002  
  465.00  1.6746E-002  
  465.50  1.6341E-002  
  466.00  1.5940E-002  
  466.50  1.5474E-002  
  467.00  1.4892E-002  
  467.50  1.4362E-002  
  468.00  1.3880E-002  
  468.50  1.3525E-002  
  469.00  1.3168E-002  
  469.50  1.2766E-002  
  470.00  1.2374E-002  
  470.50  1.2004E-002  
  471.00  1.1706E-002  
  471.50  1.1406E-002  
  472.00  1.1102E-002  
  472.50  1.0799E-002  
  473.00  1.0517E-002  
  473.50  1.0272E-002  
  474.00  9.9964E-003  
  474.50  9.7979E-003  
  475.00  9.6011E-003  
  475.50  9.4604E-003  
  476.00  9.3634E-003  
  476.50  9.3052E-003  
  477.00  9.2296E-003  
  477.50  9.1776E-003  
  478.00  9.0881E-003  
  478.50  9.0402E-003  
  479.00  9.0091E-003  
  479.50  9.0134E-003  
  480.00  9.0259E-003  
  480.50  9.0258E-003  
  481.00  9.0120E-003  
  481.50  9.0283E-003  
  482.00  9.1083E-003  
  482.50  9.2256E-003  
  483.00  9.3495E-003  
  483.50  9.4402E-003  
  484.00  9.5072E-003  
  484.50  9.5438E-003  
  485.00  9.5732E-003  
  485.50  9.6724E-003  
  486.00  9.8083E-003  
  486.50  9.9858E-003  
  487.00  1.0165E-002  
  487.50  1.0367E-002  
  488.00  1.0565E-002  
  488.50  1.0744E-002  
  489.00  1.0932E-002  
  489.50  1.1152E-002  
  490.00  1.1370E-002  
  490.50  1.1645E-002  
  491.00  1.1938E-002  
  491.50  1.2251E-002  
  492.00  1.2561E-002  
  492.50  1.2847E-002  
  493.00  1.3168E-002  
  493.50  1.3545E-002  
  494.00  1.3872E-002  
  494.50  1.4158E-002  
  495.00  1.4432E-002  
  495.50  1.4766E-002  
  496.00  1.5162E-002  
  496.50  1.5575E-002  
  497.00  1.5966E-002  
  497.50  1.6327E-002  
  498.00  1.6703E-002  
  498.50  1.7087E-002  
  499.00  1.7519E-002  
  499.50  1.7946E-002  
  500.00  1.8352E-002  
  500.50  1.8752E-002  
  501.00  1.9145E-002  
  501.50  1.9533E-002  
  502.00  1.9918E-002  
  502.50  2.0308E-002  
  503.00  2.0705E-002  
  503.50  2.1128E-002  
  504.00  2.1575E-002  
  504.50  2.1977E-002  
  505.00  2.2341E-002  
  505.50  2.2701E-002  
  506.00  2.3100E-002  
  506.50  2.3537E-002  
  507.00  2.3997E-002  
  507.50  2.4438E-002  
  508.00  2.4855E-002  
  508.50  2.5277E-002  
  509.00  2.5703E-002  
  509.50  2.6106E-002  
  510.00  2.6535E-002  
  510.50  2.6889E-002  
  511.00  2.7312E-002  
  511.50  2.7714E-002  
  512.00  2.8151E-002  
  512.50  2.8606E-002  
  513.00  2.9020E-002  
  513.50  2.9426E-002  
  514.00  2.9746E-002  
  514.50  3.0101E-002  
  515.00  3.0405E-002  
  515.50  3.0779E-002  
  516.00  3.1165E-002  
  516.50  3.1576E-002  
  517.00  3.1970E-002  
  517.50  3.2310E-002  
  518.00  3.2663E-002  
  518.50  3.3026E-002  
  519.00  3.3418E-002  
  519.50  3.3734E-002  
  520.00  3.4003E-002  
  520.50  3.4274E-002  
  521.00  3.4577E-002  
  521.50  3.4842E-002  
  522.00  3.5088E-002  
  522.50  3.5368E-002  
  523.00  3.5697E-002  
  523.50  3.6049E-002  
  524.00  3.6400E-002  
  524.50  3.6636E-002  
  525.00  3.6907E-002  
  525.50  3.7125E-002  
  526.00  3.7391E-002  
  526.50  3.7749E-002  
  527.00  3.8084E-002  
  527.50  3.8425E-002  
  528.00  3.8662E-002  
  528.50  3.8859E-002  
  529.00  3.9108E-002  
  529.50  3.9437E-002  
  530.00  3.9741E-002  
  530.50  4.0012E-002  
  531.00  4.0265E-002  
  531.50  4.0481E-002  
  532.00  4.0731E-002  
  532.50  4.0923E-002  
  533.00  4.1125E-002  
  533.50  4.1416E-002  
  534.00  4.1686E-002  
  534.50  4.1977E-002  
  535.00  4.2222E-002  
  535.50  4.2461E-002  
  536.00  4.2751E-002  
  536.50  4.3006E-002  
  537.00  4.3291E-002  
  537.50  4.3445E-002  
  538.00  4.3600E-002  
  538.50  4.3764E-002  
  539.00  4.4047E-002  
  539.50  4.4370E-002  
  540.00  4.4672E-002  
  540.50  4.4898E-002  
  541.00  4.5076E-002  
  541.50  4.5291E-002  
  542.00  4.5551E-002  
  542.50  4.5822E-002  
  543.00  4.6133E-002  
  543.50  4.6358E-002  
  544.00  4.6608E-002  
  544.50  4.6835E-002  
  545.00  4.7029E-002  
  545.50  4.7284E-002  
  546.00  4.7532E-002  
  546.50  4.7842E-002  
  547.00  4.8110E-002  
  547.50  4.8365E-002  
  548.00  4.8627E-002  
  548.50  4.8860E-002  
  549.00  4.9081E-002  
  549.50  4.9210E-002  
  550.00  4.9344E-002  
  550.50  4.9584E-002  
  551.00  4.9885E-002  
  551.50  5.0250E-002  
  552.00  5.0546E-002  
  552.50  5.0813E-002  
  553.00  5.1086E-002  
  553.50  5.1351E-002  
  554.00  5.1648E-002  
  554.50  5.1930E-002  
  555.00  5.2164E-002  
  555.50  5.2437E-002  
  556.00  5.2672E-002  
  556.50  5.2893E-002  
  557.00  5.3113E-002  
  557.50  5.3439E-002  
  558.00  5.3769E-002  
  558.50  5.4090E-002  
  559.00  5.4358E-002  
  559.50  5.4631E-002  
  560.00  5.4978E-002  
  560.50  5.5244E-002  
  561.00  5.5480E-002  
  561.50  5.5623E-002  
  562.00  5.5749E-002  
  562.50  5.5928E-002  
  563.00  5.6161E-002  
  563.50  5.6436E-002  
  564.00  5.6691E-002  
  564.50  5.6922E-002  
  565.00  5.7149E-002  
  565.50  5.7406E-002  
  566.00  5.7567E-002  
  566.50  5.7674E-002  
  567.00  5.7740E-002  
  567.50  5.7939E-002  
  568.00  5.8194E-002  
  568.50  5.8357E-002  
  569.00  5.8445E-002  
  569.50  5.8536E-002  
  570.00  5.8735E-002  
  570.50  5.9020E-002  
  571.00  5.9277E-002  
  571.50  5.9478E-002  
  572.00  5.9528E-002  
  572.50  5.9567E-002  
  573.00  5.9629E-002  
  573.50  5.9836E-002  
  574.00  6.0140E-002  
  574.50  6.0354E-002  
  575.00  6.0518E-002  
  575.50  6.0588E-002  
  576.00  6.0694E-002  
  576.50  6.0751E-002  
  577.00  6.0808E-002  
  577.50  6.0905E-002  
  578.00  6.1009E-002  
  578.50  6.1182E-002  
  579.00  6.1319E-002  
  579.50  6.1430E-002  
  580.00  6.1464E-002  
  580.50  6.1486E-002  
  581.00  6.1497E-002  
  581.50  6.1478E-002  
  582.00  6.1499E-002  
  582.50  6.1522E-002  
  583.00  6.1638E-002  
  583.50  6.1840E-002  
  584.00  6.1961E-002  
  584.50  6.1979E-002  
  585.00  6.1922E-002  
  585.50  6.1945E-002  
  586.00  6.2115E-002  
  586.50  6.2126E-002  
  587.00  6.2041E-002  
  587.50  6.1917E-002  
  588.00  6.1855E-002  
  588.50  6.1795E-002  
  589.00  6.1745E-002  
  589.50  6.1665E-002  
  590.00  6.1542E-002  
  590.50  6.1443E-002  
  591.00  6.1468E-002  
  591.50  6.1573E-002  
  592.00  6.1615E-002  
  592.50  6.1430E-002  
  593.00  6.1213E-002  
  593.50  6.0963E-002  
  594.00  6.0912E-002  
  594.50  6.0868E-002  
  595.00  6.0846E-002  
  595.50  6.0602E-002  
  596.00  6.0296E-002  
  596.50  6.0073E-002  
  597.00  5.9944E-002  
  597.50  5.9863E-002  
  598.00  5.9734E-002  
  598.50  5.9585E-002  
  599.00  5.9346E-002  
  599.50  5.9104E-002  
  600.00  5.8870E-002  
  600.50  5.8773E-002  
  601.00  5.8727E-002  
  601.50  5.8612E-002  
  602.00  5.8380E-002  
  602.50  5.8018E-002  
  603.00  5.7727E-002  
  603.50  5.7411E-002  
  604.00  5.7213E-002  
  604.50  5.7019E-002  
  605.00  5.6784E-002  
  605.50  5.6405E-002  
  606.00  5.5977E-002  
  606.50  5.5612E-002  
  607.00  5.5402E-002  
  607.50  5.5181E-002  
  608.00  5.4949E-002  
  608.50  5.4695E-002  
  609.00  5.4479E-002  
  609.50  5.4274E-002  
  610.00  5.4001E-002  
  610.50  5.3602E-002  
  611.00  5.3149E-002  
  611.50  5.2678E-002  
  612.00  5.2372E-002  
  612.50  5.2180E-002  
  613.00  5.2008E-002  
  613.50  5.1644E-002  
  614.00  5.1242E-002  
  614.50  5.0774E-002  
  615.00  5.0470E-002  
  615.50  5.0151E-002  
  616.00  4.9874E-002  
  616.50  4.9586E-002  
  617.00  4.9183E-002  
  617.50  4.8789E-002  
  618.00  4.8445E-002  
  618.50  4.8105E-002  
  619.00  4.7709E-002  
  619.50  4.7239E-002  
  620.00  4.6845E-002  
  620.50  4.6589E-002  
  621.00  4.6320E-002  
  621.50  4.5962E-002  
  622.00  4.5594E-002  
  622.50  4.5208E-002  
  623.00  4.4811E-002  
  623.50  4.4441E-002  
  624.00  4.4102E-002  
  624.50  4.3882E-002  
  625.00  4.3579E-002  
  625.50  4.3316E-002  
  626.00  4.2834E-002  
  626.50  4.2368E-002  
  627.00  4.1891E-002  
  627.50  4.1591E-002  
  628.00  4.1312E-002  
  628.50  4.0956E-002  
  629.00  4.0521E-002  
  629.50  4.0038E-002  
  630.00  3.9596E-002  
  630.50  3.9209E-002  
  631.00  3.8869E-002  
  631.50  3.8508E-002  
  632.00  3.8063E-002  
  632.50  3.7678E-002  
  633.00  3.7338E-002  
  633.50  3.7047E-002  
  634.00  3.6774E-002  
  634.50  3.6543E-002  
  635.00  3.6352E-002  
  635.50  3.6046E-002  
  636.00  3.5589E-002  
  636.50  3.5060E-002  
  637.00  3.4570E-002  
  637.50  3.4225E-002  
  638.00  3.3942E-002  
  638.50  3.3690E-002  
  639.00  3.3347E-002  
  639.50  3.2932E-002  
  640.00  3.2578E-002  
  640.50  3.2213E-002  
  641.00  3.1867E-002  
  641.50  3.1443E-002  
  642.00  3.1113E-002  
  642.50  3.0861E-002  
  643.00  3.0550E-002  
  643.50  3.0098E-002  
  644.00  2.9654E-002  
  644.50  2.9297E-002  
  645.00  2.9019E-002  
  645.50  2.8748E-002  
  646.00  2.8452E-002  
  646.50  2.8202E-002  
  647.00  2.7904E-002  
  647.50  2.7617E-002  
  648.00  2.7280E-002  
  648.50  2.6959E-002  
  649.00  2.6692E-002  
  649.50  2.6361E-002  
  650.00  2.5974E-002  
  650.50  2.5571E-002  
  651.00  2.5203E-002  
  651.50  2.4961E-002  
  652.00  2.4704E-002  
  652.50  2.4446E-002  
  653.00  2.4138E-002  
  653.50  2.3791E-002  
  654.00  2.3446E-002  
  654.50  2.3106E-002  
  655.00  2.2792E-002  
  655.50  2.2513E-002  
  656.00  2.2340E-002  
  656.50  2.2114E-002  
  657.00  2.1909E-002  
  657.50  2.1558E-002  
  658.00  2.1219E-002  
  658.50  2.0894E-002  
  659.00  2.0680E-002  
  659.50  2.0503E-002  
  660.00  2.0201E-002  
  660.50  1.9886E-002  
  661.00  1.9577E-002  
  661.50  1.9354E-002  
  662.00  1.9162E-002  
  662.50  1.9012E-002  
  663.00  1.8824E-002  
  663.50  1.8599E-002  
  664.00  1.8236E-002  
  664.50  1.7916E-002  
  665.00  1.7520E-002  
  665.50  1.7263E-002  
  666.00  1.7045E-002  
  666.50  1.6876E-002  
  667.00  1.6658E-002  
  667.50  1.6386E-002  
  668.00  1.6135E-002  
  668.50  1.5920E-002  
  669.00  1.5801E-002  
  669.50  1.5644E-002  
  670.00  1.5503E-002  
  670.50  1.5282E-002  
  671.00  1.5077E-002  
  671.50  1.4890E-002  
  672.00  1.4670E-002  
  672.50  1.4418E-002  
  673.00  1.4163E-002  
  673.50  1.3953E-002  
  674.00  1.3793E-002  
  674.50  1.3595E-002  
  675.00  1.3440E-002  
  675.50  1.3218E-002  
  676.00  1.2984E-002  
  676.50  1.2842E-002  
  677.00  1.2741E-002  
  677.50  1.2622E-002  
  678.00  1.2385E-002  
  678.50  1.2090E-002  
  679.00  1.1869E-002  
  679.50  1.1713E-002  
