
# From lspdd.org
# 
# Name: DEL Standard PAR30LN Domestique
# Indice spectral Valeur 
# MSI 0.47 
# SLI 0.66 
# IPI 0.74 
# Pourcentage de bleu 27.7 
# Caractéristique Valeur 
# CCT calculée (K) 3717 
# CCT du fabricant (K) 4000 
# Tension (V) 120 
# Puissance (W) 15.0 
# Efficacité lumineuse (Lum/W) 56.0 
#
# Image: '/app/system/img_2s/2507/medium_image2.JPG?1413486010'
# Image: '/app/system/img_1s/2507/medium_image1.JPG?1413486013'
# 

  273.00  0.0000E+000  
  273.50  0.0000E+000  
  274.00  0.0000E+000  
  274.50  0.0000E+000  
  275.00  0.0000E+000  
  275.50  0.0000E+000  
  276.00  0.0000E+000  
  276.50  0.0000E+000  
  277.00  0.0000E+000  
  277.50  0.0000E+000  
  278.00  0.0000E+000  
  278.50  0.0000E+000  
  279.00  0.0000E+000  
  279.50  0.0000E+000  
  280.00  0.0000E+000  
  280.50  0.0000E+000  
  281.00  0.0000E+000  
  281.50  0.0000E+000  
  282.00  0.0000E+000  
  282.50  0.0000E+000  
  283.00  0.0000E+000  
  283.50  0.0000E+000  
  284.00  0.0000E+000  
  284.50  0.0000E+000  
  285.00  0.0000E+000  
  285.50  0.0000E+000  
  286.00  0.0000E+000  
  286.50  0.0000E+000  
  287.00  0.0000E+000  
  287.50  0.0000E+000  
  288.00  0.0000E+000  
  288.50  0.0000E+000  
  289.00  0.0000E+000  
  289.50  0.0000E+000  
  290.00  0.0000E+000  
  290.50  0.0000E+000  
  291.00  0.0000E+000  
  291.50  0.0000E+000  
  292.00  0.0000E+000  
  292.50  0.0000E+000  
  293.00  0.0000E+000  
  293.50  0.0000E+000  
  294.00  0.0000E+000  
  294.50  0.0000E+000  
  295.00  0.0000E+000  
  295.50  0.0000E+000  
  296.00  0.0000E+000  
  296.50  0.0000E+000  
  297.00  0.0000E+000  
  297.50  0.0000E+000  
  298.00  0.0000E+000  
  298.50  0.0000E+000  
  299.00  0.0000E+000  
  299.50  0.0000E+000  
  300.00  0.0000E+000  
  300.50  0.0000E+000  
  301.00  0.0000E+000  
  301.50  0.0000E+000  
  302.00  0.0000E+000  
  302.50  0.0000E+000  
  303.00  3.7539E-006  
  303.50  4.8708E-005  
  304.00  1.1471E-004  
  304.50  1.0248E-004  
  305.00  6.7438E-005  
  305.50  5.5398E-005  
  306.00  2.4527E-005  
  306.50  3.1016E-005  
  307.00  2.1025E-005  
  307.50  1.7454E-005  
  308.00  5.6329E-006  
  308.50  0.0000E+000  
  309.00  0.0000E+000  
  309.50  0.0000E+000  
  310.00  1.1366E-005  
  310.50  3.0026E-005  
  311.00  2.8593E-005  
  311.50  0.0000E+000  
  312.00  0.0000E+000  
  312.50  0.0000E+000  
  313.00  0.0000E+000  
  313.50  0.0000E+000  
  314.00  0.0000E+000  
  314.50  0.0000E+000  
  315.00  2.6271E-005  
  315.50  5.6191E-005  
  316.00  8.8155E-005  
  316.50  8.9105E-005  
  317.00  2.1152E-005  
  317.50  0.0000E+000  
  318.00  0.0000E+000  
  318.50  0.0000E+000  
  319.00  0.0000E+000  
  319.50  0.0000E+000  
  320.00  0.0000E+000  
  320.50  0.0000E+000  
  321.00  4.0604E-006  
  321.50  2.6899E-005  
  322.00  5.7319E-005  
  322.50  5.5030E-005  
  323.00  5.4657E-005  
  323.50  4.4175E-005  
  324.00  3.3163E-005  
  324.50  2.0595E-005  
  325.00  8.4488E-006  
  325.50  6.2675E-005  
  326.00  7.4504E-005  
  326.50  1.0692E-004  
  327.00  9.7987E-005  
  327.50  5.7823E-005  
  328.00  5.3037E-005  
  328.50  2.1041E-005  
  329.00  8.7717E-006  
  329.50  0.0000E+000  
  330.00  0.0000E+000  
  330.50  0.0000E+000  
  331.00  0.0000E+000  
  331.50  8.2103E-005  
  332.00  1.3956E-004  
  332.50  1.1662E-004  
  333.00  9.7448E-005  
  333.50  8.1378E-005  
  334.00  1.1180E-004  
  334.50  1.2693E-004  
  335.00  1.0402E-004  
  335.50  7.1904E-005  
  336.00  4.2895E-005  
  336.50  7.7431E-005  
  337.00  8.3187E-005  
  337.50  1.2009E-004  
  338.00  1.0774E-004  
  338.50  1.1348E-004  
  339.00  1.2115E-004  
  339.50  1.0760E-004  
  340.00  1.4077E-004  
  340.50  1.7127E-004  
  341.00  1.8356E-004  
  341.50  2.1210E-004  
  342.00  2.1896E-004  
  342.50  1.7053E-004  
  343.00  8.8569E-005  
  343.50  4.2018E-006  
  344.00  0.0000E+000  
  344.50  3.1344E-005  
  345.00  1.2412E-004  
  345.50  2.0911E-004  
  346.00  2.2891E-004  
  346.50  2.2836E-004  
  347.00  1.9026E-004  
  347.50  1.0097E-004  
  348.00  8.4667E-005  
  348.50  8.4267E-005  
  349.00  7.7676E-005  
  349.50  1.0012E-004  
  350.00  9.0532E-005  
  350.50  9.1732E-005  
  351.00  1.0923E-004  
  351.50  1.0502E-004  
  352.00  9.2897E-005  
  352.50  1.1099E-004  
  353.00  1.2339E-004  
  353.50  1.2298E-004  
  354.00  1.5069E-004  
  354.50  1.5791E-004  
  355.00  1.8745E-004  
  355.50  1.9419E-004  
  356.00  1.3344E-004  
  356.50  7.2997E-005  
  357.00  6.0201E-005  
  357.50  7.4928E-005  
  358.00  1.3997E-004  
  358.50  1.5379E-004  
  359.00  1.5169E-004  
  359.50  1.6916E-004  
  360.00  1.8870E-004  
  360.50  2.3121E-004  
  361.00  2.2968E-004  
  361.50  2.2919E-004  
  362.00  2.6223E-004  
  362.50  2.8842E-004  
  363.00  3.0348E-004  
  363.50  2.8600E-004  
  364.00  2.4833E-004  
  364.50  2.4173E-004  
  365.00  2.0698E-004  
  365.50  1.7714E-004  
  366.00  1.3777E-004  
  366.50  1.3271E-004  
  367.00  1.7341E-004  
  367.50  1.8986E-004  
  368.00  1.9790E-004  
  368.50  2.2713E-004  
  369.00  2.7623E-004  
  369.50  3.5458E-004  
  370.00  3.7038E-004  
  370.50  3.5743E-004  
  371.00  3.2288E-004  
  371.50  2.6901E-004  
  372.00  2.9006E-004  
  372.50  2.8180E-004  
  373.00  3.1126E-004  
  373.50  2.9171E-004  
  374.00  2.5074E-004  
  374.50  2.3322E-004  
  375.00  2.1943E-004  
  375.50  2.7448E-004  
  376.00  3.0499E-004  
  376.50  3.1463E-004  
  377.00  3.3728E-004  
  377.50  2.9922E-004  
  378.00  3.0859E-004  
  378.50  3.1777E-004  
  379.00  3.0863E-004  
  379.50  3.6661E-004  
  380.00  3.8305E-004  
  380.50  3.9011E-004  
  381.00  3.8221E-004  
  381.50  3.3983E-004  
  382.00  3.3476E-004  
  382.50  3.5419E-004  
  383.00  3.5795E-004  
  383.50  3.8865E-004  
  384.00  3.8854E-004  
  384.50  4.1328E-004  
  385.00  4.7822E-004  
  385.50  5.1956E-004  
  386.00  5.4584E-004  
  386.50  5.5483E-004  
  387.00  5.3767E-004  
  387.50  5.5081E-004  
  388.00  5.2725E-004  
  388.50  5.2331E-004  
  389.00  5.0648E-004  
  389.50  4.9641E-004  
  390.00  5.1929E-004  
  390.50  5.1339E-004  
  391.00  5.5390E-004  
  391.50  5.9084E-004  
  392.00  5.8710E-004  
  392.50  5.7790E-004  
  393.00  5.7476E-004  
  393.50  6.1193E-004  
  394.00  6.4579E-004  
  394.50  6.3534E-004  
  395.00  5.8843E-004  
  395.50  5.5850E-004  
  396.00  5.9890E-004  
  396.50  6.8603E-004  
  397.00  7.5590E-004  
  397.50  8.0082E-004  
  398.00  7.4931E-004  
  398.50  7.2956E-004  
  399.00  6.8864E-004  
  399.50  7.1319E-004  
  400.00  8.2094E-004  
  400.50  8.8277E-004  
  401.00  9.4281E-004  
  401.50  9.7135E-004  
  402.00  9.7851E-004  
  402.50  1.0055E-003  
  403.00  1.0348E-003  
  403.50  1.0603E-003  
  404.00  1.1704E-003  
  404.50  1.2606E-003  
  405.00  1.3383E-003  
  405.50  1.3486E-003  
  406.00  1.3229E-003  
  406.50  1.4015E-003  
  407.00  1.5160E-003  
  407.50  1.6465E-003  
  408.00  1.7938E-003  
  408.50  1.8184E-003  
  409.00  1.8721E-003  
  409.50  1.9557E-003  
  410.00  2.0864E-003  
  410.50  2.2791E-003  
  411.00  2.4567E-003  
  411.50  2.6456E-003  
  412.00  2.8570E-003  
  412.50  3.0457E-003  
  413.00  3.2030E-003  
  413.50  3.3828E-003  
  414.00  3.5662E-003  
  414.50  3.8131E-003  
  415.00  4.0647E-003  
  415.50  4.3555E-003  
  416.00  4.7058E-003  
  416.50  5.0410E-003  
  417.00  5.4195E-003  
  417.50  5.7724E-003  
  418.00  6.1797E-003  
  418.50  6.6016E-003  
  419.00  7.0498E-003  
  419.50  7.5143E-003  
  420.00  8.0325E-003  
  420.50  8.6321E-003  
  421.00  9.2611E-003  
  421.50  9.8926E-003  
  422.00  1.0558E-002  
  422.50  1.1240E-002  
  423.00  1.2044E-002  
  423.50  1.2928E-002  
  424.00  1.3829E-002  
  424.50  1.4704E-002  
  425.00  1.5618E-002  
  425.50  1.6595E-002  
  426.00  1.7741E-002  
  426.50  1.8952E-002  
  427.00  2.0249E-002  
  427.50  2.1598E-002  
  428.00  2.2996E-002  
  428.50  2.4409E-002  
  429.00  2.5945E-002  
  429.50  2.7634E-002  
  430.00  2.9368E-002  
  430.50  3.1215E-002  
  431.00  3.2980E-002  
  431.50  3.4835E-002  
  432.00  3.6896E-002  
  432.50  3.9098E-002  
  433.00  4.1399E-002  
  433.50  4.3626E-002  
  434.00  4.5963E-002  
  434.50  4.8501E-002  
  435.00  5.1217E-002  
  435.50  5.3976E-002  
  436.00  5.6837E-002  
  436.50  5.9737E-002  
  437.00  6.2905E-002  
  437.50  6.6134E-002  
  438.00  6.9358E-002  
  438.50  7.2552E-002  
  439.00  7.5905E-002  
  439.50  7.9664E-002  
  440.00  8.3747E-002  
  440.50  8.8343E-002  
  441.00  9.3034E-002  
  441.50  9.7903E-002  
  442.00  1.0301E-001  
  442.50  1.0812E-001  
  443.00  1.1385E-001  
  443.50  1.1966E-001  
  444.00  1.2561E-001  
  444.50  1.3168E-001  
  445.00  1.3774E-001  
  445.50  1.4387E-001  
  446.00  1.5008E-001  
  446.50  1.5606E-001  
  447.00  1.6180E-001  
  447.50  1.6716E-001  
  448.00  1.7205E-001  
  448.50  1.7637E-001  
  449.00  1.8010E-001  
  449.50  1.8308E-001  
  450.00  1.8542E-001  
  450.50  1.8675E-001  
  451.00  1.8732E-001  
  451.50  1.8676E-001  
  452.00  1.8556E-001  
  452.50  1.8355E-001  
  453.00  1.8054E-001  
  453.50  1.7673E-001  
  454.00  1.7225E-001  
  454.50  1.6754E-001  
  455.00  1.6306E-001  
  455.50  1.5790E-001  
  456.00  1.5234E-001  
  456.50  1.4678E-001  
  457.00  1.4117E-001  
  457.50  1.3586E-001  
  458.00  1.3055E-001  
  458.50  1.2537E-001  
  459.00  1.2068E-001  
  459.50  1.1637E-001  
  460.00  1.1251E-001  
  460.50  1.0907E-001  
  461.00  1.0591E-001  
  461.50  1.0289E-001  
  462.00  1.0015E-001  
  462.50  9.7601E-002  
  463.00  9.5327E-002  
  463.50  9.3181E-002  
  464.00  9.1070E-002  
  464.50  8.9143E-002  
  465.00  8.7270E-002  
  465.50  8.5456E-002  
  466.00  8.3543E-002  
  466.50  8.1705E-002  
  467.00  7.9886E-002  
  467.50  7.8082E-002  
  468.00  7.6277E-002  
  468.50  7.4401E-002  
  469.00  7.2471E-002  
  469.50  7.0446E-002  
  470.00  6.8491E-002  
  470.50  6.6702E-002  
  471.00  6.4971E-002  
  471.50  6.3205E-002  
  472.00  6.1395E-002  
  472.50  5.9688E-002  
  473.00  5.8183E-002  
  473.50  5.6922E-002  
  474.00  5.5692E-002  
  474.50  5.4405E-002  
  475.00  5.3046E-002  
  475.50  5.1801E-002  
  476.00  5.0706E-002  
  476.50  4.9879E-002  
  477.00  4.9163E-002  
  477.50  4.8504E-002  
  478.00  4.7855E-002  
  478.50  4.7330E-002  
  479.00  4.7064E-002  
  479.50  4.6943E-002  
  480.00  4.6953E-002  
  480.50  4.6856E-002  
  481.00  4.6689E-002  
  481.50  4.6552E-002  
  482.00  4.6575E-002  
  482.50  4.6622E-002  
  483.00  4.6659E-002  
  483.50  4.6830E-002  
  484.00  4.7010E-002  
  484.50  4.7244E-002  
  485.00  4.7457E-002  
  485.50  4.7678E-002  
  486.00  4.7948E-002  
  486.50  4.8344E-002  
  487.00  4.8772E-002  
  487.50  4.9232E-002  
  488.00  4.9716E-002  
  488.50  5.0179E-002  
  489.00  5.0733E-002  
  489.50  5.1408E-002  
  490.00  5.2126E-002  
  490.50  5.2850E-002  
  491.00  5.3569E-002  
  491.50  5.4244E-002  
  492.00  5.5043E-002  
  492.50  5.6013E-002  
  493.00  5.7084E-002  
  493.50  5.8221E-002  
  494.00  5.9205E-002  
  494.50  6.0187E-002  
  495.00  6.1220E-002  
  495.50  6.2338E-002  
  496.00  6.3447E-002  
  496.50  6.4627E-002  
  497.00  6.5953E-002  
  497.50  6.7453E-002  
  498.00  6.8935E-002  
  498.50  7.0255E-002  
  499.00  7.1536E-002  
  499.50  7.2876E-002  
  500.00  7.4243E-002  
  500.50  7.5501E-002  
  501.00  7.6717E-002  
  501.50  7.7999E-002  
  502.00  7.9460E-002  
  502.50  8.0952E-002  
  503.00  8.2384E-002  
  503.50  8.3813E-002  
  504.00  8.5282E-002  
  504.50  8.6725E-002  
  505.00  8.8109E-002  
  505.50  8.9448E-002  
  506.00  9.0763E-002  
  506.50  9.2103E-002  
  507.00  9.3399E-002  
  507.50  9.4661E-002  
  508.00  9.5914E-002  
  508.50  9.7142E-002  
  509.00  9.8316E-002  
  509.50  9.9448E-002  
  510.00  1.0061E-001  
  510.50  1.0177E-001  
  511.00  1.0297E-001  
  511.50  1.0407E-001  
  512.00  1.0519E-001  
  512.50  1.0612E-001  
  513.00  1.0705E-001  
  513.50  1.0784E-001  
  514.00  1.0868E-001  
  514.50  1.0970E-001  
  515.00  1.1063E-001  
  515.50  1.1157E-001  
  516.00  1.1236E-001  
  516.50  1.1309E-001  
  517.00  1.1387E-001  
  517.50  1.1459E-001  
  518.00  1.1536E-001  
  518.50  1.1611E-001  
  519.00  1.1684E-001  
  519.50  1.1754E-001  
  520.00  1.1817E-001  
  520.50  1.1880E-001  
  521.00  1.1938E-001  
  521.50  1.1998E-001  
  522.00  1.2057E-001  
  522.50  1.2122E-001  
  523.00  1.2181E-001  
  523.50  1.2245E-001  
  524.00  1.2303E-001  
  524.50  1.2353E-001  
  525.00  1.2403E-001  
  525.50  1.2451E-001  
  526.00  1.2504E-001  
  526.50  1.2558E-001  
  527.00  1.2614E-001  
  527.50  1.2670E-001  
  528.00  1.2721E-001  
  528.50  1.2772E-001  
  529.00  1.2817E-001  
  529.50  1.2863E-001  
  530.00  1.2906E-001  
  530.50  1.2951E-001  
  531.00  1.3001E-001  
  531.50  1.3050E-001  
  532.00  1.3100E-001  
  532.50  1.3150E-001  
  533.00  1.3195E-001  
  533.50  1.3236E-001  
  534.00  1.3262E-001  
  534.50  1.3299E-001  
  535.00  1.3346E-001  
  535.50  1.3392E-001  
  536.00  1.3438E-001  
  536.50  1.3474E-001  
  537.00  1.3517E-001  
  537.50  1.3560E-001  
  538.00  1.3604E-001  
  538.50  1.3646E-001  
  539.00  1.3689E-001  
  539.50  1.3728E-001  
  540.00  1.3769E-001  
  540.50  1.3812E-001  
  541.00  1.3852E-001  
  541.50  1.3888E-001  
  542.00  1.3920E-001  
  542.50  1.3962E-001  
  543.00  1.4006E-001  
  543.50  1.4044E-001  
  544.00  1.4082E-001  
  544.50  1.4114E-001  
  545.00  1.4150E-001  
  545.50  1.4185E-001  
  546.00  1.4213E-001  
  546.50  1.4245E-001  
  547.00  1.4278E-001  
  547.50  1.4315E-001  
  548.00  1.4354E-001  
  548.50  1.4398E-001  
  549.00  1.4432E-001  
  549.50  1.4466E-001  
  550.00  1.4493E-001  
  550.50  1.4523E-001  
  551.00  1.4559E-001  
  551.50  1.4598E-001  
  552.00  1.4636E-001  
  552.50  1.4672E-001  
  553.00  1.4707E-001  
  553.50  1.4739E-001  
  554.00  1.4770E-001  
  554.50  1.4797E-001  
  555.00  1.4820E-001  
  555.50  1.4851E-001  
  556.00  1.4888E-001  
  556.50  1.4929E-001  
  557.00  1.4973E-001  
  557.50  1.5018E-001  
  558.00  1.5064E-001  
  558.50  1.5104E-001  
  559.00  1.5136E-001  
  559.50  1.5172E-001  
  560.00  1.5205E-001  
  560.50  1.5231E-001  
  561.00  1.5260E-001  
  561.50  1.5287E-001  
  562.00  1.5325E-001  
  562.50  1.5347E-001  
  563.00  1.5369E-001  
  563.50  1.5387E-001  
  564.00  1.5417E-001  
  564.50  1.5448E-001  
  565.00  1.5477E-001  
  565.50  1.5504E-001  
  566.00  1.5528E-001  
  566.50  1.5554E-001  
  567.00  1.5572E-001  
  567.50  1.5591E-001  
  568.00  1.5619E-001  
  568.50  1.5655E-001  
  569.00  1.5691E-001  
  569.50  1.5718E-001  
  570.00  1.5738E-001  
  570.50  1.5760E-001  
  571.00  1.5786E-001  
  571.50  1.5819E-001  
  572.00  1.5847E-001  
  572.50  1.5871E-001  
  573.00  1.5893E-001  
  573.50  1.5918E-001  
  574.00  1.5939E-001  
  574.50  1.5955E-001  
  575.00  1.5974E-001  
  575.50  1.5998E-001  
  576.00  1.6029E-001  
  576.50  1.6058E-001  
  577.00  1.6087E-001  
  577.50  1.6113E-001  
  578.00  1.6133E-001  
  578.50  1.6157E-001  
  579.00  1.6177E-001  
  579.50  1.6194E-001  
  580.00  1.6208E-001  
  580.50  1.6228E-001  
  581.00  1.6255E-001  
  581.50  1.6280E-001  
  582.00  1.6291E-001  
  582.50  1.6304E-001  
  583.00  1.6320E-001  
  583.50  1.6348E-001  
  584.00  1.6371E-001  
  584.50  1.6391E-001  
  585.00  1.6397E-001  
  585.50  1.6411E-001  
  586.00  1.6427E-001  
  586.50  1.6464E-001  
  587.00  1.6489E-001  
  587.50  1.6511E-001  
  588.00  1.6527E-001  
  588.50  1.6546E-001  
  589.00  1.6571E-001  
  589.50  1.6590E-001  
  590.00  1.6613E-001  
  590.50  1.6626E-001  
  591.00  1.6648E-001  
  591.50  1.6658E-001  
  592.00  1.6667E-001  
  592.50  1.6677E-001  
  593.00  1.6699E-001  
  593.50  1.6718E-001  
  594.00  1.6735E-001  
  594.50  1.6742E-001  
  595.00  1.6753E-001  
  595.50  1.6755E-001  
  596.00  1.6769E-001  
  596.50  1.6789E-001  
  597.00  1.6817E-001  
  597.50  1.6829E-001  
  598.00  1.6839E-001  
  598.50  1.6845E-001  
  599.00  1.6856E-001  
  599.50  1.6858E-001  
  600.00  1.6861E-001  
  600.50  1.6867E-001  
  601.00  1.6891E-001  
  601.50  1.6912E-001  
  602.00  1.6928E-001  
  602.50  1.6932E-001  
  603.00  1.6937E-001  
  603.50  1.6949E-001  
  604.00  1.6966E-001  
  604.50  1.6973E-001  
  605.00  1.6973E-001  
  605.50  1.6967E-001  
  606.00  1.6972E-001  
  606.50  1.6998E-001  
  607.00  1.7021E-001  
  607.50  1.7031E-001  
  608.00  1.7032E-001  
  608.50  1.7042E-001  
  609.00  1.7064E-001  
  609.50  1.7079E-001  
  610.00  1.7087E-001  
  610.50  1.7092E-001  
  611.00  1.7091E-001  
  611.50  1.7083E-001  
  612.00  1.7065E-001  
  612.50  1.7061E-001  
  613.00  1.7057E-001  
  613.50  1.7072E-001  
  614.00  1.7084E-001  
  614.50  1.7091E-001  
  615.00  1.7097E-001  
  615.50  1.7094E-001  
  616.00  1.7087E-001  
  616.50  1.7073E-001  
  617.00  1.7051E-001  
  617.50  1.7037E-001  
  618.00  1.7024E-001  
  618.50  1.7012E-001  
  619.00  1.6986E-001  
  619.50  1.6972E-001  
  620.00  1.6974E-001  
  620.50  1.6983E-001  
  621.00  1.6968E-001  
  621.50  1.6928E-001  
  622.00  1.6901E-001  
  622.50  1.6889E-001  
  623.00  1.6879E-001  
  623.50  1.6870E-001  
  624.00  1.6838E-001  
  624.50  1.6806E-001  
  625.00  1.6773E-001  
  625.50  1.6751E-001  
  626.00  1.6732E-001  
  626.50  1.6701E-001  
  627.00  1.6662E-001  
  627.50  1.6629E-001  
  628.00  1.6602E-001  
  628.50  1.6583E-001  
  629.00  1.6559E-001  
  629.50  1.6521E-001  
  630.00  1.6487E-001  
  630.50  1.6454E-001  
  631.00  1.6426E-001  
  631.50  1.6408E-001  
  632.00  1.6367E-001  
  632.50  1.6302E-001  
  633.00  1.6217E-001  
  633.50  1.6159E-001  
  634.00  1.6123E-001  
  634.50  1.6098E-001  
  635.00  1.6059E-001  
  635.50  1.6000E-001  
  636.00  1.5932E-001  
  636.50  1.5859E-001  
  637.00  1.5811E-001  
  637.50  1.5770E-001  
  638.00  1.5733E-001  
  638.50  1.5685E-001  
  639.00  1.5631E-001  
  639.50  1.5571E-001  
  640.00  1.5506E-001  
  640.50  1.5427E-001  
  641.00  1.5347E-001  
  641.50  1.5281E-001  
  642.00  1.5220E-001  
  642.50  1.5154E-001  
  643.00  1.5071E-001  
  643.50  1.5000E-001  
  644.00  1.4956E-001  
  644.50  1.4909E-001  
  645.00  1.4855E-001  
  645.50  1.4773E-001  
  646.00  1.4689E-001  
  646.50  1.4591E-001  
  647.00  1.4504E-001  
  647.50  1.4426E-001  
  648.00  1.4349E-001  
  648.50  1.4272E-001  
  649.00  1.4186E-001  
  649.50  1.4099E-001  
  650.00  1.4010E-001  
  650.50  1.3928E-001  
  651.00  1.3858E-001  
  651.50  1.3776E-001  
  652.00  1.3691E-001  
  652.50  1.3605E-001  
  653.00  1.3526E-001  
  653.50  1.3442E-001  
  654.00  1.3355E-001  
  654.50  1.3255E-001  
  655.00  1.3163E-001  
  655.50  1.3064E-001  
  656.00  1.2991E-001  
  656.50  1.2902E-001  
  657.00  1.2814E-001  
  657.50  1.2721E-001  
  658.00  1.2627E-001  
  658.50  1.2530E-001  
  659.00  1.2438E-001  
  659.50  1.2361E-001  
  660.00  1.2273E-001  
  660.50  1.2169E-001  
  661.00  1.2052E-001  
  661.50  1.1951E-001  
  662.00  1.1852E-001  
  662.50  1.1756E-001  
  663.00  1.1659E-001  
  663.50  1.1564E-001  
  664.00  1.1453E-001  
  664.50  1.1331E-001  
  665.00  1.1220E-001  
  665.50  1.1119E-001  
  666.00  1.1017E-001  
  666.50  1.0929E-001  
  667.00  1.0841E-001  
  667.50  1.0752E-001  
  668.00  1.0644E-001  
  668.50  1.0562E-001  
  669.00  1.0488E-001  
  669.50  1.0378E-001  
  670.00  1.0251E-001  
  670.50  1.0143E-001  
  671.00  1.0053E-001  
  671.50  9.9526E-002  
  672.00  9.8526E-002  
  672.50  9.7622E-002  
  673.00  9.6719E-002  
  673.50  9.5592E-002  
  674.00  9.4508E-002  
  674.50  9.3639E-002  
  675.00  9.2831E-002  
  675.50  9.2193E-002  
  676.00  9.1255E-002  
  676.50  9.0266E-002  
  677.00  8.9007E-002  
  677.50  8.8036E-002  
  678.00  8.7135E-002  
  678.50  8.6211E-002  
  679.00  8.5163E-002  
  679.50  8.4223E-002  
