
# From lspdd.org
# 
# Name: DEL Ledtech PAR20 Domestique
# Indice spectral Valeur 
# MSI 0.30 
# SLI 0.50 
# IPI 0.64 
# Pourcentage de bleu 19.2 
# Caractéristique Valeur 
# CCT calculée (K) 2932 
# CCT du fabricant (K) 2939 
# Tension (V) 120 
# Puissance (W) 8.0 
# Efficacité lumineuse (Lum/W) ND 
#
# Image: '/app/system/img_2s/2509/medium_image2.jpg?1413486021'
# Image: '/app/system/img_1s/2509/medium_image1.jpg?1413486022'
# 

  273.00  0.0000E+000  
  273.50  0.0000E+000  
  274.00  0.0000E+000  
  274.50  0.0000E+000  
  275.00  0.0000E+000  
  275.50  0.0000E+000  
  276.00  0.0000E+000  
  276.50  0.0000E+000  
  277.00  0.0000E+000  
  277.50  0.0000E+000  
  278.00  0.0000E+000  
  278.50  0.0000E+000  
  279.00  0.0000E+000  
  279.50  0.0000E+000  
  280.00  0.0000E+000  
  280.50  0.0000E+000  
  281.00  0.0000E+000  
  281.50  0.0000E+000  
  282.00  0.0000E+000  
  282.50  0.0000E+000  
  283.00  0.0000E+000  
  283.50  0.0000E+000  
  284.00  0.0000E+000  
  284.50  0.0000E+000  
  285.00  0.0000E+000  
  285.50  0.0000E+000  
  286.00  0.0000E+000  
  286.50  0.0000E+000  
  287.00  0.0000E+000  
  287.50  0.0000E+000  
  288.00  0.0000E+000  
  288.50  0.0000E+000  
  289.00  0.0000E+000  
  289.50  0.0000E+000  
  290.00  0.0000E+000  
  290.50  0.0000E+000  
  291.00  0.0000E+000  
  291.50  0.0000E+000  
  292.00  0.0000E+000  
  292.50  0.0000E+000  
  293.00  0.0000E+000  
  293.50  0.0000E+000  
  294.00  0.0000E+000  
  294.50  0.0000E+000  
  295.00  0.0000E+000  
  295.50  0.0000E+000  
  296.00  0.0000E+000  
  296.50  0.0000E+000  
  297.00  0.0000E+000  
  297.50  0.0000E+000  
  298.00  0.0000E+000  
  298.50  0.0000E+000  
  299.00  0.0000E+000  
  299.50  0.0000E+000  
  300.00  3.7656E-005  
  300.50  8.8538E-005  
  301.00  8.5542E-005  
  301.50  4.1590E-005  
  302.00  2.9049E-005  
  302.50  4.7315E-005  
  303.00  7.1508E-005  
  303.50  1.4740E-004  
  304.00  1.9985E-004  
  304.50  1.6338E-004  
  305.00  9.8557E-005  
  305.50  3.3756E-005  
  306.00  3.9885E-006  
  306.50  2.0279E-005  
  307.00  7.6766E-005  
  307.50  1.5773E-004  
  308.00  1.9532E-004  
  308.50  2.2800E-004  
  309.00  2.1529E-004  
  309.50  1.5945E-004  
  310.00  1.5248E-004  
  310.50  1.3682E-004  
  311.00  1.5613E-004  
  311.50  1.3572E-004  
  312.00  7.3077E-005  
  312.50  4.5032E-005  
  313.00  4.5519E-006  
  313.50  2.5756E-005  
  314.00  5.3598E-005  
  314.50  5.7743E-005  
  315.00  4.8392E-005  
  315.50  3.9843E-006  
  316.00  0.0000E+000  
  316.50  0.0000E+000  
  317.00  1.5469E-005  
  317.50  4.5368E-005  
  318.00  8.1684E-005  
  318.50  8.4171E-005  
  319.00  1.1228E-004  
  319.50  1.5750E-004  
  320.00  2.2481E-004  
  320.50  2.5844E-004  
  321.00  1.9290E-004  
  321.50  1.3362E-004  
  322.00  4.4623E-005  
  322.50  1.8706E-005  
  323.00  6.2971E-005  
  323.50  1.0767E-004  
  324.00  1.7955E-004  
  324.50  2.5169E-004  
  325.00  2.5495E-004  
  325.50  2.5076E-004  
  326.00  1.4926E-004  
  326.50  1.0590E-004  
  327.00  1.2042E-004  
  327.50  1.5119E-004  
  328.00  2.1978E-004  
  328.50  2.9358E-004  
  329.00  2.9447E-004  
  329.50  2.7091E-004  
  330.00  2.1883E-004  
  330.50  1.6420E-004  
  331.00  1.8014E-004  
  331.50  1.9155E-004  
  332.00  2.4445E-004  
  332.50  2.3183E-004  
  333.00  2.0884E-004  
  333.50  2.0257E-004  
  334.00  1.6781E-004  
  334.50  1.7342E-004  
  335.00  1.7547E-004  
  335.50  2.0059E-004  
  336.00  2.0771E-004  
  336.50  1.4177E-004  
  337.00  1.1751E-004  
  337.50  1.1525E-004  
  338.00  2.0017E-004  
  338.50  2.8793E-004  
  339.00  3.5078E-004  
  339.50  3.4678E-004  
  340.00  3.5523E-004  
  340.50  3.4176E-004  
  341.00  2.7515E-004  
  341.50  2.1640E-004  
  342.00  1.7788E-004  
  342.50  1.4502E-004  
  343.00  1.7490E-004  
  343.50  1.9046E-004  
  344.00  1.6250E-004  
  344.50  1.7279E-004  
  345.00  1.7492E-004  
  345.50  1.7568E-004  
  346.00  1.8637E-004  
  346.50  1.5469E-004  
  347.00  1.3065E-004  
  347.50  8.8022E-005  
  348.00  1.1712E-004  
  348.50  1.3440E-004  
  349.00  1.5395E-004  
  349.50  1.9991E-004  
  350.00  1.8117E-004  
  350.50  1.6665E-004  
  351.00  1.4642E-004  
  351.50  1.3402E-004  
  352.00  1.3770E-004  
  352.50  1.4818E-004  
  353.00  1.3959E-004  
  353.50  1.2292E-004  
  354.00  1.3166E-004  
  354.50  1.3806E-004  
  355.00  1.4081E-004  
  355.50  1.3690E-004  
  356.00  1.5155E-004  
  356.50  1.3871E-004  
  357.00  1.2273E-004  
  357.50  1.3465E-004  
  358.00  1.4628E-004  
  358.50  2.2807E-004  
  359.00  2.8234E-004  
  359.50  2.8882E-004  
  360.00  2.8657E-004  
  360.50  2.4080E-004  
  361.00  2.1467E-004  
  361.50  1.7665E-004  
  362.00  1.4198E-004  
  362.50  1.2205E-004  
  363.00  1.4296E-004  
  363.50  1.9115E-004  
  364.00  2.1671E-004  
  364.50  2.3950E-004  
  365.00  2.2437E-004  
  365.50  2.1132E-004  
  366.00  1.8784E-004  
  366.50  1.4218E-004  
  367.00  1.3587E-004  
  367.50  1.3275E-004  
  368.00  1.6394E-004  
  368.50  1.7711E-004  
  369.00  1.8062E-004  
  369.50  1.4761E-004  
  370.00  1.0581E-004  
  370.50  1.2614E-004  
  371.00  1.1941E-004  
  371.50  1.4940E-004  
  372.00  2.0430E-004  
  372.50  1.6191E-004  
  373.00  1.1081E-004  
  373.50  5.9186E-005  
  374.00  2.3033E-005  
  374.50  6.9861E-005  
  375.00  1.4770E-004  
  375.50  2.0523E-004  
  376.00  2.3548E-004  
  376.50  2.2529E-004  
  377.00  2.1363E-004  
  377.50  1.5758E-004  
  378.00  1.2546E-004  
  378.50  1.0045E-004  
  379.00  6.3651E-005  
  379.50  7.6341E-005  
  380.00  1.1330E-004  
  380.50  1.2704E-004  
  381.00  1.4887E-004  
  381.50  1.4395E-004  
  382.00  1.2464E-004  
  382.50  1.9731E-004  
  383.00  2.5888E-004  
  383.50  3.0025E-004  
  384.00  3.1730E-004  
  384.50  2.4951E-004  
  385.00  1.8492E-004  
  385.50  1.3963E-004  
  386.00  1.7101E-004  
  386.50  2.2392E-004  
  387.00  2.6697E-004  
  387.50  2.9327E-004  
  388.00  2.5501E-004  
  388.50  2.4118E-004  
  389.00  2.4165E-004  
  389.50  2.1685E-004  
  390.00  2.5527E-004  
  390.50  2.7934E-004  
  391.00  3.0362E-004  
  391.50  3.0782E-004  
  392.00  3.0161E-004  
  392.50  2.8841E-004  
  393.00  2.9910E-004  
  393.50  3.2132E-004  
  394.00  3.1869E-004  
  394.50  3.1147E-004  
  395.00  3.2826E-004  
  395.50  3.3769E-004  
  396.00  3.3633E-004  
  396.50  3.2094E-004  
  397.00  2.5363E-004  
  397.50  2.0753E-004  
  398.00  1.5773E-004  
  398.50  1.6903E-004  
  399.00  2.5143E-004  
  399.50  3.2440E-004  
  400.00  3.7246E-004  
  400.50  3.3589E-004  
  401.00  3.1513E-004  
  401.50  3.4540E-004  
  402.00  3.9537E-004  
  402.50  4.4109E-004  
  403.00  4.0879E-004  
  403.50  3.8789E-004  
  404.00  3.6907E-004  
  404.50  3.6391E-004  
  405.00  4.1172E-004  
  405.50  4.7386E-004  
  406.00  5.0182E-004  
  406.50  4.9422E-004  
  407.00  4.1545E-004  
  407.50  4.0393E-004  
  408.00  4.4646E-004  
  408.50  4.9745E-004  
  409.00  5.5689E-004  
  409.50  5.5577E-004  
  410.00  5.8668E-004  
  410.50  6.3486E-004  
  411.00  6.5365E-004  
  411.50  6.4358E-004  
  412.00  6.6767E-004  
  412.50  6.6258E-004  
  413.00  7.2191E-004  
  413.50  7.5904E-004  
  414.00  8.2107E-004  
  414.50  8.8755E-004  
  415.00  9.5204E-004  
  415.50  1.0270E-003  
  416.00  1.1161E-003  
  416.50  1.2288E-003  
  417.00  1.3594E-003  
  417.50  1.4615E-003  
  418.00  1.5384E-003  
  418.50  1.6661E-003  
  419.00  1.7619E-003  
  419.50  1.8470E-003  
  420.00  1.9582E-003  
  420.50  2.0044E-003  
  421.00  2.1024E-003  
  421.50  2.2160E-003  
  422.00  2.3397E-003  
  422.50  2.5237E-003  
  423.00  2.7091E-003  
  423.50  2.8700E-003  
  424.00  3.0535E-003  
  424.50  3.2306E-003  
  425.00  3.4209E-003  
  425.50  3.6424E-003  
  426.00  3.8904E-003  
  426.50  4.1518E-003  
  427.00  4.4447E-003  
  427.50  4.7266E-003  
  428.00  4.9957E-003  
  428.50  5.2412E-003  
  429.00  5.5110E-003  
  429.50  5.7972E-003  
  430.00  6.1132E-003  
  430.50  6.4899E-003  
  431.00  6.9097E-003  
  431.50  7.3606E-003  
  432.00  7.8719E-003  
  432.50  8.3133E-003  
  433.00  8.7566E-003  
  433.50  9.1753E-003  
  434.00  9.5929E-003  
  434.50  1.0042E-002  
  435.00  1.0505E-002  
  435.50  1.0995E-002  
  436.00  1.1562E-002  
  436.50  1.2125E-002  
  437.00  1.2645E-002  
  437.50  1.3115E-002  
  438.00  1.3577E-002  
  438.50  1.4090E-002  
  439.00  1.4730E-002  
  439.50  1.5381E-002  
  440.00  1.6010E-002  
  440.50  1.6636E-002  
  441.00  1.7242E-002  
  441.50  1.7877E-002  
  442.00  1.8638E-002  
  442.50  1.9369E-002  
  443.00  2.0194E-002  
  443.50  2.1017E-002  
  444.00  2.1861E-002  
  444.50  2.2810E-002  
  445.00  2.3765E-002  
  445.50  2.4866E-002  
  446.00  2.5967E-002  
  446.50  2.7064E-002  
  447.00  2.8114E-002  
  447.50  2.9152E-002  
  448.00  3.0256E-002  
  448.50  3.1389E-002  
  449.00  3.2556E-002  
  449.50  3.3573E-002  
  450.00  3.4546E-002  
  450.50  3.5443E-002  
  451.00  3.6316E-002  
  451.50  3.7147E-002  
  452.00  3.7926E-002  
  452.50  3.8730E-002  
  453.00  3.9412E-002  
  453.50  3.9983E-002  
  454.00  4.0391E-002  
  454.50  4.0609E-002  
  455.00  4.0826E-002  
  455.50  4.0827E-002  
  456.00  4.0701E-002  
  456.50  4.0495E-002  
  457.00  4.0170E-002  
  457.50  3.9736E-002  
  458.00  3.9146E-002  
  458.50  3.8374E-002  
  459.00  3.7496E-002  
  459.50  3.6597E-002  
  460.00  3.5734E-002  
  460.50  3.4834E-002  
  461.00  3.3907E-002  
  461.50  3.2862E-002  
  462.00  3.1833E-002  
  462.50  3.0918E-002  
  463.00  3.0087E-002  
  463.50  2.9303E-002  
  464.00  2.8460E-002  
  464.50  2.7654E-002  
  465.00  2.6863E-002  
  465.50  2.6239E-002  
  466.00  2.5655E-002  
  466.50  2.5068E-002  
  467.00  2.4498E-002  
  467.50  2.4000E-002  
  468.00  2.3462E-002  
  468.50  2.2933E-002  
  469.00  2.2437E-002  
  469.50  2.1971E-002  
  470.00  2.1711E-002  
  470.50  2.1464E-002  
  471.00  2.1143E-002  
  471.50  2.0765E-002  
  472.00  2.0255E-002  
  472.50  1.9916E-002  
  473.00  1.9685E-002  
  473.50  1.9531E-002  
  474.00  1.9256E-002  
  474.50  1.8827E-002  
  475.00  1.8327E-002  
  475.50  1.7922E-002  
  476.00  1.7590E-002  
  476.50  1.7394E-002  
  477.00  1.7144E-002  
  477.50  1.6912E-002  
  478.00  1.6544E-002  
  478.50  1.6244E-002  
  479.00  1.5941E-002  
  479.50  1.5703E-002  
  480.00  1.5508E-002  
  480.50  1.5265E-002  
  481.00  1.4998E-002  
  481.50  1.4664E-002  
  482.00  1.4416E-002  
  482.50  1.4235E-002  
  483.00  1.4069E-002  
  483.50  1.3962E-002  
  484.00  1.3824E-002  
  484.50  1.3732E-002  
  485.00  1.3649E-002  
  485.50  1.3536E-002  
  486.00  1.3474E-002  
  486.50  1.3427E-002  
  487.00  1.3389E-002  
  487.50  1.3350E-002  
  488.00  1.3331E-002  
  488.50  1.3308E-002  
  489.00  1.3311E-002  
  489.50  1.3351E-002  
  490.00  1.3395E-002  
  490.50  1.3471E-002  
  491.00  1.3527E-002  
  491.50  1.3550E-002  
  492.00  1.3590E-002  
  492.50  1.3678E-002  
  493.00  1.3814E-002  
  493.50  1.3960E-002  
  494.00  1.4093E-002  
  494.50  1.4192E-002  
  495.00  1.4299E-002  
  495.50  1.4447E-002  
  496.00  1.4603E-002  
  496.50  1.4795E-002  
  497.00  1.4997E-002  
  497.50  1.5211E-002  
  498.00  1.5414E-002  
  498.50  1.5626E-002  
  499.00  1.5825E-002  
  499.50  1.6023E-002  
  500.00  1.6266E-002  
  500.50  1.6578E-002  
  501.00  1.6923E-002  
  501.50  1.7288E-002  
  502.00  1.7610E-002  
  502.50  1.7908E-002  
  503.00  1.8238E-002  
  503.50  1.8610E-002  
  504.00  1.9054E-002  
  504.50  1.9477E-002  
  505.00  1.9851E-002  
  505.50  2.0162E-002  
  506.00  2.0521E-002  
  506.50  2.0951E-002  
  507.00  2.1462E-002  
  507.50  2.1932E-002  
  508.00  2.2336E-002  
  508.50  2.2704E-002  
  509.00  2.3127E-002  
  509.50  2.3579E-002  
  510.00  2.4047E-002  
  510.50  2.4462E-002  
  511.00  2.4934E-002  
  511.50  2.5408E-002  
  512.00  2.5943E-002  
  512.50  2.6434E-002  
  513.00  2.6911E-002  
  513.50  2.7381E-002  
  514.00  2.7862E-002  
  514.50  2.8339E-002  
  515.00  2.8824E-002  
  515.50  2.9282E-002  
  516.00  2.9749E-002  
  516.50  3.0240E-002  
  517.00  3.0770E-002  
  517.50  3.1324E-002  
  518.00  3.1855E-002  
  518.50  3.2346E-002  
  519.00  3.2806E-002  
  519.50  3.3168E-002  
  520.00  3.3559E-002  
  520.50  3.3995E-002  
  521.00  3.4509E-002  
  521.50  3.5017E-002  
  522.00  3.5433E-002  
  522.50  3.5876E-002  
  523.00  3.6341E-002  
  523.50  3.6806E-002  
  524.00  3.7293E-002  
  524.50  3.7678E-002  
  525.00  3.8122E-002  
  525.50  3.8579E-002  
  526.00  3.9023E-002  
  526.50  3.9494E-002  
  527.00  3.9946E-002  
  527.50  4.0443E-002  
  528.00  4.0891E-002  
  528.50  4.1303E-002  
  529.00  4.1663E-002  
  529.50  4.2075E-002  
  530.00  4.2499E-002  
  530.50  4.2939E-002  
  531.00  4.3375E-002  
  531.50  4.3723E-002  
  532.00  4.4146E-002  
  532.50  4.4564E-002  
  533.00  4.4989E-002  
  533.50  4.5453E-002  
  534.00  4.5845E-002  
  534.50  4.6265E-002  
  535.00  4.6614E-002  
  535.50  4.6918E-002  
  536.00  4.7183E-002  
  536.50  4.7489E-002  
  537.00  4.7875E-002  
  537.50  4.8275E-002  
  538.00  4.8727E-002  
  538.50  4.9128E-002  
  539.00  4.9541E-002  
  539.50  4.9866E-002  
  540.00  5.0206E-002  
  540.50  5.0618E-002  
  541.00  5.0987E-002  
  541.50  5.1441E-002  
  542.00  5.1805E-002  
  542.50  5.2146E-002  
  543.00  5.2475E-002  
  543.50  5.2755E-002  
  544.00  5.3131E-002  
  544.50  5.3526E-002  
  545.00  5.3933E-002  
  545.50  5.4332E-002  
  546.00  5.4653E-002  
  546.50  5.4990E-002  
  547.00  5.5330E-002  
  547.50  5.5700E-002  
  548.00  5.6070E-002  
  548.50  5.6426E-002  
  549.00  5.6796E-002  
  549.50  5.7146E-002  
  550.00  5.7464E-002  
  550.50  5.7822E-002  
  551.00  5.8210E-002  
  551.50  5.8692E-002  
  552.00  5.9117E-002  
  552.50  5.9500E-002  
  553.00  5.9872E-002  
  553.50  6.0324E-002  
  554.00  6.0750E-002  
  554.50  6.1152E-002  
  555.00  6.1395E-002  
  555.50  6.1711E-002  
  556.00  6.2107E-002  
  556.50  6.2558E-002  
  557.00  6.2986E-002  
  557.50  6.3433E-002  
  558.00  6.3796E-002  
  558.50  6.4179E-002  
  559.00  6.4560E-002  
  559.50  6.4880E-002  
  560.00  6.5260E-002  
  560.50  6.5559E-002  
  561.00  6.5890E-002  
  561.50  6.6183E-002  
  562.00  6.6504E-002  
  562.50  6.6834E-002  
  563.00  6.7172E-002  
  563.50  6.7542E-002  
  564.00  6.7948E-002  
  564.50  6.8344E-002  
  565.00  6.8718E-002  
  565.50  6.9101E-002  
  566.00  6.9523E-002  
  566.50  6.9996E-002  
  567.00  7.0282E-002  
  567.50  7.0649E-002  
  568.00  7.1068E-002  
  568.50  7.1528E-002  
  569.00  7.1926E-002  
  569.50  7.2221E-002  
  570.00  7.2502E-002  
  570.50  7.2836E-002  
  571.00  7.3231E-002  
  571.50  7.3650E-002  
  572.00  7.4045E-002  
  572.50  7.4292E-002  
  573.00  7.4509E-002  
  573.50  7.4737E-002  
  574.00  7.5087E-002  
  574.50  7.5444E-002  
  575.00  7.5830E-002  
  575.50  7.6148E-002  
  576.00  7.6515E-002  
  576.50  7.6834E-002  
  577.00  7.7247E-002  
  577.50  7.7665E-002  
  578.00  7.7974E-002  
  578.50  7.8328E-002  
  579.00  7.8582E-002  
  579.50  7.8883E-002  
  580.00  7.9196E-002  
  580.50  7.9541E-002  
  581.00  7.9843E-002  
  581.50  8.0080E-002  
  582.00  8.0225E-002  
  582.50  8.0393E-002  
  583.00  8.0589E-002  
  583.50  8.0835E-002  
  584.00  8.1128E-002  
  584.50  8.1489E-002  
  585.00  8.1784E-002  
  585.50  8.2089E-002  
  586.00  8.2311E-002  
  586.50  8.2578E-002  
  587.00  8.2821E-002  
  587.50  8.3022E-002  
  588.00  8.3070E-002  
  588.50  8.3048E-002  
  589.00  8.3226E-002  
  589.50  8.3514E-002  
  590.00  8.3880E-002  
  590.50  8.4079E-002  
  591.00  8.4189E-002  
  591.50  8.4278E-002  
  592.00  8.4286E-002  
  592.50  8.4327E-002  
  593.00  8.4502E-002  
  593.50  8.4672E-002  
  594.00  8.4894E-002  
  594.50  8.4886E-002  
  595.00  8.4942E-002  
  595.50  8.5023E-002  
  596.00  8.5067E-002  
  596.50  8.5161E-002  
  597.00  8.5196E-002  
  597.50  8.5273E-002  
  598.00  8.5281E-002  
  598.50  8.5260E-002  
  599.00  8.5254E-002  
  599.50  8.5288E-002  
  600.00  8.5337E-002  
  600.50  8.5334E-002  
  601.00  8.5270E-002  
  601.50  8.5239E-002  
  602.00  8.5222E-002  
  602.50  8.5292E-002  
  603.00  8.5283E-002  
  603.50  8.5150E-002  
  604.00  8.5063E-002  
  604.50  8.4952E-002  
  605.00  8.4852E-002  
  605.50  8.4688E-002  
  606.00  8.4493E-002  
  606.50  8.4316E-002  
  607.00  8.4083E-002  
  607.50  8.3765E-002  
  608.00  8.3550E-002  
  608.50  8.3444E-002  
  609.00  8.3491E-002  
  609.50  8.3495E-002  
  610.00  8.3330E-002  
  610.50  8.2960E-002  
  611.00  8.2581E-002  
  611.50  8.2221E-002  
  612.00  8.2036E-002  
  612.50  8.1851E-002  
  613.00  8.1773E-002  
  613.50  8.1628E-002  
  614.00  8.1479E-002  
  614.50  8.1180E-002  
  615.00  8.0920E-002  
  615.50  8.0480E-002  
  616.00  8.0064E-002  
  616.50  7.9665E-002  
  617.00  7.9309E-002  
  617.50  7.9035E-002  
  618.00  7.8820E-002  
  618.50  7.8613E-002  
  619.00  7.8337E-002  
  619.50  7.7932E-002  
  620.00  7.7560E-002  
  620.50  7.7234E-002  
  621.00  7.6963E-002  
  621.50  7.6670E-002  
  622.00  7.6336E-002  
  622.50  7.5828E-002  
  623.00  7.5402E-002  
  623.50  7.5104E-002  
  624.00  7.4867E-002  
  624.50  7.4462E-002  
  625.00  7.3954E-002  
  625.50  7.3590E-002  
  626.00  7.3216E-002  
  626.50  7.2730E-002  
  627.00  7.2163E-002  
  627.50  7.1659E-002  
  628.00  7.1299E-002  
  628.50  7.0819E-002  
  629.00  7.0476E-002  
  629.50  7.0001E-002  
  630.00  6.9620E-002  
  630.50  6.9170E-002  
  631.00  6.8729E-002  
  631.50  6.8298E-002  
  632.00  6.7736E-002  
  632.50  6.7352E-002  
  633.00  6.6890E-002  
  633.50  6.6492E-002  
  634.00  6.5996E-002  
  634.50  6.5591E-002  
  635.00  6.5202E-002  
  635.50  6.4736E-002  
  636.00  6.4156E-002  
  636.50  6.3557E-002  
  637.00  6.3111E-002  
  637.50  6.2732E-002  
  638.00  6.2366E-002  
  638.50  6.1862E-002  
  639.00  6.1339E-002  
  639.50  6.0851E-002  
  640.00  6.0407E-002  
  640.50  5.9943E-002  
  641.00  5.9352E-002  
  641.50  5.8761E-002  
  642.00  5.8277E-002  
  642.50  5.7728E-002  
  643.00  5.7044E-002  
  643.50  5.6232E-002  
  644.00  5.5783E-002  
  644.50  5.5538E-002  
  645.00  5.5443E-002  
  645.50  5.5096E-002  
  646.00  5.4478E-002  
  646.50  5.3700E-002  
  647.00  5.3057E-002  
  647.50  5.2662E-002  
  648.00  5.2397E-002  
  648.50  5.1955E-002  
  649.00  5.1487E-002  
  649.50  5.0853E-002  
  650.00  5.0251E-002  
  650.50  4.9662E-002  
  651.00  4.9173E-002  
  651.50  4.8698E-002  
  652.00  4.8254E-002  
  652.50  4.7829E-002  
  653.00  4.7400E-002  
  653.50  4.6852E-002  
  654.00  4.6278E-002  
  654.50  4.5752E-002  
  655.00  4.5371E-002  
  655.50  4.5004E-002  
  656.00  4.4640E-002  
  656.50  4.4086E-002  
  657.00  4.3487E-002  
  657.50  4.2901E-002  
  658.00  4.2502E-002  
  658.50  4.2165E-002  
  659.00  4.1842E-002  
  659.50  4.1423E-002  
  660.00  4.0950E-002  
  660.50  4.0525E-002  
  661.00  4.0089E-002  
  661.50  3.9571E-002  
  662.00  3.8921E-002  
  662.50  3.8276E-002  
  663.00  3.7863E-002  
  663.50  3.7529E-002  
  664.00  3.7217E-002  
  664.50  3.6787E-002  
  665.00  3.6320E-002  
  665.50  3.5803E-002  
  666.00  3.5303E-002  
  666.50  3.4827E-002  
  667.00  3.4357E-002  
  667.50  3.3968E-002  
  668.00  3.3494E-002  
  668.50  3.3124E-002  
  669.00  3.2739E-002  
  669.50  3.2399E-002  
  670.00  3.2036E-002  
  670.50  3.1719E-002  
  671.00  3.1475E-002  
  671.50  3.1101E-002  
  672.00  3.0615E-002  
  672.50  3.0163E-002  
  673.00  2.9736E-002  
  673.50  2.9351E-002  
  674.00  2.8919E-002  
  674.50  2.8620E-002  
  675.00  2.8229E-002  
  675.50  2.7895E-002  
  676.00  2.7526E-002  
  676.50  2.7191E-002  
  677.00  2.6848E-002  
  677.50  2.6486E-002  
  678.00  2.6154E-002  
  678.50  2.5891E-002  
  679.00  2.5531E-002  
  679.50  2.5193E-002  
  680.00  2.4746E-002  
