
# From lspdd.org
# 
# Name: DEL Philips A19 Domestique
# Indice spectral Valeur 
# MSI 0.24 
# SLI 0.44 
# IPI 0.67 
# Pourcentage de bleu 15.2 
# Caractéristique Valeur 
# CCT calculée (K) 2537 
# CCT du fabricant (K) 2700 
# Tension (V) 120 
# Puissance (W) 11.0 
# Efficacité lumineuse (Lum/W) 75.5 
#
# Image: '/app/system/img_2s/2512/medium_image2.JPG?1413486030'
# Image: '/app/system/img_1s/2512/medium_image1.JPG?1413486033'
# 

  273.00  0.0000E+000  
  273.50  0.0000E+000  
  274.00  0.0000E+000  
  274.50  0.0000E+000  
  275.00  0.0000E+000  
  275.50  0.0000E+000  
  276.00  0.0000E+000  
  276.50  0.0000E+000  
  277.00  0.0000E+000  
  277.50  0.0000E+000  
  278.00  0.0000E+000  
  278.50  0.0000E+000  
  279.00  0.0000E+000  
  279.50  0.0000E+000  
  280.00  0.0000E+000  
  280.50  0.0000E+000  
  281.00  0.0000E+000  
  281.50  0.0000E+000  
  282.00  0.0000E+000  
  282.50  0.0000E+000  
  283.00  0.0000E+000  
  283.50  0.0000E+000  
  284.00  0.0000E+000  
  284.50  0.0000E+000  
  285.00  0.0000E+000  
  285.50  0.0000E+000  
  286.00  0.0000E+000  
  286.50  0.0000E+000  
  287.00  0.0000E+000  
  287.50  0.0000E+000  
  288.00  0.0000E+000  
  288.50  0.0000E+000  
  289.00  0.0000E+000  
  289.50  0.0000E+000  
  290.00  0.0000E+000  
  290.50  0.0000E+000  
  291.00  0.0000E+000  
  291.50  0.0000E+000  
  292.00  0.0000E+000  
  292.50  0.0000E+000  
  293.00  0.0000E+000  
  293.50  0.0000E+000  
  294.00  0.0000E+000  
  294.50  0.0000E+000  
  295.00  0.0000E+000  
  295.50  0.0000E+000  
  296.00  0.0000E+000  
  296.50  0.0000E+000  
  297.00  0.0000E+000  
  297.50  0.0000E+000  
  298.00  0.0000E+000  
  298.50  0.0000E+000  
  299.00  0.0000E+000  
  299.50  0.0000E+000  
  300.00  1.2552E-005  
  300.50  4.5428E-005  
  301.00  4.8172E-005  
  301.50  1.4087E-005  
  302.00  6.9465E-006  
  302.50  0.0000E+000  
  303.00  0.0000E+000  
  303.50  0.0000E+000  
  304.00  0.0000E+000  
  304.50  0.0000E+000  
  305.00  0.0000E+000  
  305.50  0.0000E+000  
  306.00  0.0000E+000  
  306.50  0.0000E+000  
  307.00  0.0000E+000  
  307.50  3.8706E-006  
  308.00  1.6717E-005  
  308.50  1.0652E-005  
  309.00  0.0000E+000  
  309.50  1.0474E-005  
  310.00  4.2600E-005  
  310.50  5.9412E-005  
  311.00  2.8922E-005  
  311.50  0.0000E+000  
  312.00  0.0000E+000  
  312.50  0.0000E+000  
  313.00  0.0000E+000  
  313.50  1.9141E-005  
  314.00  7.8955E-005  
  314.50  6.6961E-005  
  315.00  2.1142E-005  
  315.50  8.7571E-007  
  316.00  0.0000E+000  
  316.50  7.0722E-006  
  317.00  1.1567E-005  
  317.50  1.0035E-005  
  318.00  1.9932E-005  
  318.50  2.2384E-005  
  319.00  1.6287E-005  
  319.50  1.0451E-005  
  320.00  3.5536E-006  
  320.50  8.0602E-006  
  321.00  0.0000E+000  
  321.50  0.0000E+000  
  322.00  0.0000E+000  
  322.50  0.0000E+000  
  323.00  0.0000E+000  
  323.50  0.0000E+000  
  324.00  0.0000E+000  
  324.50  0.0000E+000  
  325.00  0.0000E+000  
  325.50  6.7524E-006  
  326.00  4.3841E-005  
  326.50  3.8945E-005  
  327.00  3.1778E-005  
  327.50  2.7149E-005  
  328.00  2.1295E-006  
  328.50  0.0000E+000  
  329.00  0.0000E+000  
  329.50  0.0000E+000  
  330.00  0.0000E+000  
  330.50  0.0000E+000  
  331.00  0.0000E+000  
  331.50  0.0000E+000  
  332.00  0.0000E+000  
  332.50  0.0000E+000  
  333.00  0.0000E+000  
  333.50  0.0000E+000  
  334.00  0.0000E+000  
  334.50  0.0000E+000  
  335.00  0.0000E+000  
  335.50  0.0000E+000  
  336.00  0.0000E+000  
  336.50  0.0000E+000  
  337.00  0.0000E+000  
  337.50  0.0000E+000  
  338.00  0.0000E+000  
  338.50  0.0000E+000  
  339.00  0.0000E+000  
  339.50  0.0000E+000  
  340.00  0.0000E+000  
  340.50  0.0000E+000  
  341.00  0.0000E+000  
  341.50  0.0000E+000  
  342.00  0.0000E+000  
  342.50  0.0000E+000  
  343.00  0.0000E+000  
  343.50  0.0000E+000  
  344.00  1.1293E-005  
  344.50  4.6051E-005  
  345.00  6.9451E-005  
  345.50  8.9920E-005  
  346.00  4.0261E-005  
  346.50  7.0750E-007  
  347.00  0.0000E+000  
  347.50  0.0000E+000  
  348.00  0.0000E+000  
  348.50  1.9158E-006  
  349.00  2.1699E-006  
  349.50  0.0000E+000  
  350.00  0.0000E+000  
  350.50  0.0000E+000  
  351.00  2.2846E-008  
  351.50  4.7288E-005  
  352.00  1.1052E-004  
  352.50  1.3297E-004  
  353.00  8.8074E-005  
  353.50  1.5800E-005  
  354.00  0.0000E+000  
  354.50  0.0000E+000  
  355.00  0.0000E+000  
  355.50  0.0000E+000  
  356.00  0.0000E+000  
  356.50  0.0000E+000  
  357.00  0.0000E+000  
  357.50  0.0000E+000  
  358.00  0.0000E+000  
  358.50  0.0000E+000  
  359.00  0.0000E+000  
  359.50  0.0000E+000  
  360.00  0.0000E+000  
  360.50  0.0000E+000  
  361.00  0.0000E+000  
  361.50  9.8338E-006  
  362.00  0.0000E+000  
  362.50  0.0000E+000  
  363.00  0.0000E+000  
  363.50  0.0000E+000  
  364.00  0.0000E+000  
  364.50  0.0000E+000  
  365.00  0.0000E+000  
  365.50  0.0000E+000  
  366.00  0.0000E+000  
  366.50  0.0000E+000  
  367.00  0.0000E+000  
  367.50  0.0000E+000  
  368.00  1.3461E-005  
  368.50  0.0000E+000  
  369.00  0.0000E+000  
  369.50  0.0000E+000  
  370.00  0.0000E+000  
  370.50  0.0000E+000  
  371.00  0.0000E+000  
  371.50  0.0000E+000  
  372.00  0.0000E+000  
  372.50  0.0000E+000  
  373.00  0.0000E+000  
  373.50  0.0000E+000  
  374.00  0.0000E+000  
  374.50  0.0000E+000  
  375.00  0.0000E+000  
  375.50  0.0000E+000  
  376.00  0.0000E+000  
  376.50  0.0000E+000  
  377.00  0.0000E+000  
  377.50  0.0000E+000  
  378.00  4.0484E-006  
  378.50  0.0000E+000  
  379.00  0.0000E+000  
  379.50  0.0000E+000  
  380.00  0.0000E+000  
  380.50  1.0145E-005  
  381.00  8.0573E-005  
  381.50  1.3333E-004  
  382.00  1.7854E-004  
  382.50  1.1649E-004  
  383.00  3.5747E-005  
  383.50  1.7652E-006  
  384.00  3.0754E-006  
  384.50  4.1933E-005  
  385.00  9.4492E-005  
  385.50  8.0438E-005  
  386.00  2.8897E-005  
  386.50  0.0000E+000  
  387.00  0.0000E+000  
  387.50  0.0000E+000  
  388.00  0.0000E+000  
  388.50  0.0000E+000  
  389.00  0.0000E+000  
  389.50  8.0350E-007  
  390.00  9.7964E-007  
  390.50  0.0000E+000  
  391.00  3.5716E-006  
  391.50  3.7874E-005  
  392.00  1.0662E-004  
  392.50  1.3502E-004  
  393.00  7.3829E-005  
  393.50  9.3900E-006  
  394.00  0.0000E+000  
  394.50  0.0000E+000  
  395.00  0.0000E+000  
  395.50  0.0000E+000  
  396.00  0.0000E+000  
  396.50  0.0000E+000  
  397.00  0.0000E+000  
  397.50  1.3163E-005  
  398.00  4.4545E-005  
  398.50  6.9551E-005  
  399.00  8.9171E-005  
  399.50  1.2466E-004  
  400.00  1.2811E-004  
  400.50  8.4767E-005  
  401.00  6.9732E-005  
  401.50  6.0063E-005  
  402.00  6.6977E-005  
  402.50  4.0112E-005  
  403.00  0.0000E+000  
  403.50  0.0000E+000  
  404.00  0.0000E+000  
  404.50  0.0000E+000  
  405.00  2.9140E-005  
  405.50  2.2536E-005  
  406.00  7.2169E-005  
  406.50  1.1940E-004  
  407.00  1.5850E-004  
  407.50  1.9723E-004  
  408.00  1.3929E-004  
  408.50  8.6351E-005  
  409.00  2.9893E-005  
  409.50  3.3644E-006  
  410.00  0.0000E+000  
  410.50  2.8449E-005  
  411.00  5.5148E-005  
  411.50  8.5510E-005  
  412.00  1.3765E-004  
  412.50  1.4897E-004  
  413.00  2.1255E-004  
  413.50  2.6464E-004  
  414.00  2.7631E-004  
  414.50  2.8282E-004  
  415.00  2.3988E-004  
  415.50  2.0955E-004  
  416.00  2.3592E-004  
  416.50  2.4911E-004  
  417.00  3.2427E-004  
  417.50  3.6422E-004  
  418.00  3.9859E-004  
  418.50  4.0277E-004  
  419.00  3.9297E-004  
  419.50  4.4203E-004  
  420.00  5.4287E-004  
  420.50  6.6984E-004  
  421.00  7.3313E-004  
  421.50  7.9285E-004  
  422.00  8.1755E-004  
  422.50  8.4447E-004  
  423.00  9.3137E-004  
  423.50  9.7488E-004  
  424.00  1.0508E-003  
  424.50  1.1421E-003  
  425.00  1.2135E-003  
  425.50  1.2964E-003  
  426.00  1.3618E-003  
  426.50  1.4011E-003  
  427.00  1.4606E-003  
  427.50  1.5385E-003  
  428.00  1.6576E-003  
  428.50  1.8019E-003  
  429.00  1.9379E-003  
  429.50  2.0710E-003  
  430.00  2.1669E-003  
  430.50  2.2657E-003  
  431.00  2.3507E-003  
  431.50  2.4090E-003  
  432.00  2.5071E-003  
  432.50  2.5908E-003  
  433.00  2.6910E-003  
  433.50  2.8001E-003  
  434.00  2.9538E-003  
  434.50  3.1177E-003  
  435.00  3.2069E-003  
  435.50  3.2345E-003  
  436.00  3.2899E-003  
  436.50  3.4056E-003  
  437.00  3.6263E-003  
  437.50  3.7538E-003  
  438.00  3.7674E-003  
  438.50  3.8142E-003  
  439.00  3.9206E-003  
  439.50  4.1222E-003  
  440.00  4.3407E-003  
  440.50  4.5051E-003  
  441.00  4.6548E-003  
  441.50  4.8187E-003  
  442.00  4.9587E-003  
  442.50  5.0745E-003  
  443.00  5.1518E-003  
  443.50  5.2472E-003  
  444.00  5.4146E-003  
  444.50  5.6270E-003  
  445.00  5.7949E-003  
  445.50  5.8959E-003  
  446.00  5.9523E-003  
  446.50  6.0103E-003  
  447.00  6.1516E-003  
  447.50  6.2650E-003  
  448.00  6.2961E-003  
  448.50  6.2973E-003  
  449.00  6.2144E-003  
  449.50  6.1934E-003  
  450.00  6.1157E-003  
  450.50  6.0596E-003  
  451.00  5.9692E-003  
  451.50  5.8790E-003  
  452.00  5.7956E-003  
  452.50  5.6677E-003  
  453.00  5.5268E-003  
  453.50  5.3281E-003  
  454.00  5.1063E-003  
  454.50  4.9249E-003  
  455.00  4.7869E-003  
  455.50  4.6470E-003  
  456.00  4.4716E-003  
  456.50  4.2476E-003  
  457.00  4.0986E-003  
  457.50  4.0009E-003  
  458.00  3.9429E-003  
  458.50  3.8692E-003  
  459.00  3.7723E-003  
  459.50  3.6929E-003  
  460.00  3.6027E-003  
  460.50  3.5323E-003  
  461.00  3.4736E-003  
  461.50  3.4145E-003  
  462.00  3.3951E-003  
  462.50  3.3239E-003  
  463.00  3.2589E-003  
  463.50  3.1730E-003  
  464.00  3.0800E-003  
  464.50  3.0065E-003  
  465.00  2.9074E-003  
  465.50  2.8337E-003  
  466.00  2.7694E-003  
  466.50  2.7811E-003  
  467.00  2.7956E-003  
  467.50  2.8088E-003  
  468.00  2.8178E-003  
  468.50  2.8139E-003  
  469.00  2.7842E-003  
  469.50  2.7178E-003  
  470.00  2.6433E-003  
  470.50  2.5733E-003  
  471.00  2.5048E-003  
  471.50  2.4660E-003  
  472.00  2.4414E-003  
  472.50  2.4563E-003  
  473.00  2.4750E-003  
  473.50  2.4563E-003  
  474.00  2.4426E-003  
  474.50  2.3721E-003  
  475.00  2.3018E-003  
  475.50  2.2674E-003  
  476.00  2.2371E-003  
  476.50  2.2366E-003  
  477.00  2.2181E-003  
  477.50  2.2152E-003  
  478.00  2.2316E-003  
  478.50  2.2740E-003  
  479.00  2.2709E-003  
  479.50  2.2990E-003  
  480.00  2.3163E-003  
  480.50  2.3167E-003  
  481.00  2.3359E-003  
  481.50  2.3660E-003  
  482.00  2.4228E-003  
  482.50  2.4757E-003  
  483.00  2.4789E-003  
  483.50  2.4976E-003  
  484.00  2.5133E-003  
  484.50  2.5548E-003  
  485.00  2.5728E-003  
  485.50  2.6035E-003  
  486.00  2.6792E-003  
  486.50  2.7636E-003  
  487.00  2.8259E-003  
  487.50  2.8508E-003  
  488.00  2.8741E-003  
  488.50  2.9063E-003  
  489.00  2.9720E-003  
  489.50  3.0332E-003  
  490.00  3.1232E-003  
  490.50  3.1988E-003  
  491.00  3.2824E-003  
  491.50  3.3768E-003  
  492.00  3.4475E-003  
  492.50  3.5523E-003  
  493.00  3.6379E-003  
  493.50  3.7450E-003  
  494.00  3.8562E-003  
  494.50  3.9481E-003  
  495.00  4.0558E-003  
  495.50  4.1542E-003  
  496.00  4.2719E-003  
  496.50  4.3869E-003  
  497.00  4.4821E-003  
  497.50  4.5745E-003  
  498.00  4.6752E-003  
  498.50  4.7942E-003  
  499.00  4.9094E-003  
  499.50  5.0432E-003  
  500.00  5.1959E-003  
  500.50  5.3316E-003  
  501.00  5.4353E-003  
  501.50  5.5466E-003  
  502.00  5.6694E-003  
  502.50  5.7991E-003  
  503.00  5.9104E-003  
  503.50  6.0159E-003  
  504.00  6.1457E-003  
  504.50  6.2714E-003  
  505.00  6.4058E-003  
  505.50  6.5254E-003  
  506.00  6.6715E-003  
  506.50  6.7979E-003  
  507.00  6.8778E-003  
  507.50  6.9679E-003  
  508.00  7.0358E-003  
  508.50  7.1447E-003  
  509.00  7.2786E-003  
  509.50  7.4082E-003  
  510.00  7.5388E-003  
  510.50  7.6339E-003  
  511.00  7.6848E-003  
  511.50  7.7278E-003  
  512.00  7.7914E-003  
  512.50  7.9018E-003  
  513.00  8.0471E-003  
  513.50  8.1508E-003  
  514.00  8.2713E-003  
  514.50  8.3785E-003  
  515.00  8.4995E-003  
  515.50  8.5998E-003  
  516.00  8.6708E-003  
  516.50  8.7364E-003  
  517.00  8.7927E-003  
  517.50  8.8715E-003  
  518.00  8.9591E-003  
  518.50  9.0348E-003  
  519.00  9.0910E-003  
  519.50  9.1524E-003  
  520.00  9.2225E-003  
  520.50  9.3281E-003  
  521.00  9.4040E-003  
  521.50  9.4640E-003  
  522.00  9.5072E-003  
  522.50  9.5527E-003  
  523.00  9.6169E-003  
  523.50  9.6936E-003  
  524.00  9.7706E-003  
  524.50  9.8733E-003  
  525.00  9.9930E-003  
  525.50  1.0097E-002  
  526.00  1.0150E-002  
  526.50  1.0168E-002  
  527.00  1.0187E-002  
  527.50  1.0225E-002  
  528.00  1.0271E-002  
  528.50  1.0328E-002  
  529.00  1.0413E-002  
  529.50  1.0505E-002  
  530.00  1.0597E-002  
  530.50  1.0674E-002  
  531.00  1.0738E-002  
  531.50  1.0803E-002  
  532.00  1.0865E-002  
  532.50  1.0918E-002  
  533.00  1.0946E-002  
  533.50  1.0972E-002  
  534.00  1.0993E-002  
  534.50  1.1030E-002  
  535.00  1.1085E-002  
  535.50  1.1173E-002  
  536.00  1.1243E-002  
  536.50  1.1314E-002  
  537.00  1.1320E-002  
  537.50  1.1364E-002  
  538.00  1.1426E-002  
  538.50  1.1499E-002  
  539.00  1.1585E-002  
  539.50  1.1623E-002  
  540.00  1.1691E-002  
  540.50  1.1750E-002  
  541.00  1.1839E-002  
  541.50  1.1940E-002  
  542.00  1.2067E-002  
  542.50  1.2148E-002  
  543.00  1.2182E-002  
  543.50  1.2178E-002  
  544.00  1.2192E-002  
  544.50  1.2194E-002  
  545.00  1.2265E-002  
  545.50  1.2357E-002  
  546.00  1.2522E-002  
  546.50  1.2648E-002  
  547.00  1.2691E-002  
  547.50  1.2707E-002  
  548.00  1.2741E-002  
  548.50  1.2829E-002  
  549.00  1.2935E-002  
  549.50  1.3037E-002  
  550.00  1.3104E-002  
  550.50  1.3212E-002  
  551.00  1.3301E-002  
  551.50  1.3403E-002  
  552.00  1.3475E-002  
  552.50  1.3509E-002  
  553.00  1.3549E-002  
  553.50  1.3629E-002  
  554.00  1.3730E-002  
  554.50  1.3840E-002  
  555.00  1.3944E-002  
  555.50  1.4079E-002  
  556.00  1.4210E-002  
  556.50  1.4351E-002  
  557.00  1.4448E-002  
  557.50  1.4553E-002  
  558.00  1.4618E-002  
  558.50  1.4739E-002  
  559.00  1.4876E-002  
  559.50  1.5060E-002  
  560.00  1.5189E-002  
  560.50  1.5253E-002  
  561.00  1.5290E-002  
  561.50  1.5332E-002  
  562.00  1.5429E-002  
  562.50  1.5589E-002  
  563.00  1.5747E-002  
  563.50  1.5890E-002  
  564.00  1.5997E-002  
  564.50  1.6113E-002  
  565.00  1.6220E-002  
  565.50  1.6384E-002  
  566.00  1.6525E-002  
  566.50  1.6676E-002  
  567.00  1.6781E-002  
  567.50  1.6869E-002  
  568.00  1.6961E-002  
  568.50  1.7020E-002  
  569.00  1.7128E-002  
  569.50  1.7272E-002  
  570.00  1.7457E-002  
  570.50  1.7585E-002  
  571.00  1.7700E-002  
  571.50  1.7858E-002  
  572.00  1.8024E-002  
  572.50  1.8171E-002  
  573.00  1.8249E-002  
  573.50  1.8380E-002  
  574.00  1.8485E-002  
  574.50  1.8582E-002  
  575.00  1.8679E-002  
  575.50  1.8822E-002  
  576.00  1.9046E-002  
  576.50  1.9232E-002  
  577.00  1.9411E-002  
  577.50  1.9547E-002  
  578.00  1.9680E-002  
  578.50  1.9912E-002  
  579.00  2.0120E-002  
  579.50  2.0299E-002  
  580.00  2.0370E-002  
  580.50  2.0440E-002  
  581.00  2.0509E-002  
  581.50  2.0583E-002  
  582.00  2.0694E-002  
  582.50  2.0846E-002  
  583.00  2.1049E-002  
  583.50  2.1236E-002  
  584.00  2.1440E-002  
  584.50  2.1632E-002  
  585.00  2.1744E-002  
  585.50  2.1788E-002  
  586.00  2.1807E-002  
  586.50  2.1976E-002  
  587.00  2.2114E-002  
  587.50  2.2250E-002  
  588.00  2.2316E-002  
  588.50  2.2439E-002  
  589.00  2.2607E-002  
  589.50  2.2769E-002  
  590.00  2.2916E-002  
  590.50  2.3064E-002  
  591.00  2.3151E-002  
  591.50  2.3222E-002  
  592.00  2.3235E-002  
  592.50  2.3340E-002  
  593.00  2.3468E-002  
  593.50  2.3648E-002  
  594.00  2.3829E-002  
  594.50  2.3926E-002  
  595.00  2.3960E-002  
  595.50  2.3951E-002  
  596.00  2.4005E-002  
  596.50  2.4114E-002  
  597.00  2.4205E-002  
  597.50  2.4230E-002  
  598.00  2.4220E-002  
  598.50  2.4231E-002  
  599.00  2.4324E-002  
  599.50  2.4478E-002  
  600.00  2.4686E-002  
  600.50  2.4813E-002  
  601.00  2.4806E-002  
  601.50  2.4777E-002  
  602.00  2.4789E-002  
  602.50  2.4872E-002  
  603.00  2.4922E-002  
  603.50  2.4922E-002  
  604.00  2.4922E-002  
  604.50  2.4902E-002  
  605.00  2.4955E-002  
  605.50  2.5005E-002  
  606.00  2.5078E-002  
  606.50  2.5107E-002  
  607.00  2.5131E-002  
  607.50  2.5141E-002  
  608.00  2.5173E-002  
  608.50  2.5116E-002  
  609.00  2.5053E-002  
  609.50  2.5066E-002  
  610.00  2.5132E-002  
  610.50  2.5186E-002  
  611.00  2.5159E-002  
  611.50  2.5129E-002  
  612.00  2.5064E-002  
  612.50  2.4985E-002  
  613.00  2.4883E-002  
  613.50  2.4949E-002  
  614.00  2.5050E-002  
  614.50  2.5082E-002  
  615.00  2.4953E-002  
  615.50  2.4820E-002  
  616.00  2.4773E-002  
  616.50  2.4797E-002  
  617.00  2.4756E-002  
  617.50  2.4671E-002  
  618.00  2.4574E-002  
  618.50  2.4549E-002  
  619.00  2.4534E-002  
  619.50  2.4521E-002  
  620.00  2.4427E-002  
  620.50  2.4291E-002  
  621.00  2.4210E-002  
  621.50  2.4110E-002  
  622.00  2.4047E-002  
  622.50  2.3961E-002  
  623.00  2.3855E-002  
  623.50  2.3748E-002  
  624.00  2.3575E-002  
  624.50  2.3389E-002  
  625.00  2.3219E-002  
  625.50  2.3145E-002  
  626.00  2.3217E-002  
  626.50  2.3204E-002  
  627.00  2.3149E-002  
  627.50  2.2956E-002  
  628.00  2.2771E-002  
  628.50  2.2564E-002  
  629.00  2.2464E-002  
  629.50  2.2461E-002  
  630.00  2.2499E-002  
  630.50  2.2473E-002  
  631.00  2.2398E-002  
  631.50  2.2187E-002  
  632.00  2.1962E-002  
  632.50  2.1780E-002  
  633.00  2.1630E-002  
  633.50  2.1459E-002  
  634.00  2.1258E-002  
  634.50  2.1163E-002  
  635.00  2.1144E-002  
  635.50  2.1057E-002  
  636.00  2.0862E-002  
  636.50  2.0633E-002  
  637.00  2.0477E-002  
  637.50  2.0367E-002  
  638.00  2.0281E-002  
  638.50  2.0176E-002  
  639.00  2.0063E-002  
  639.50  1.9869E-002  
  640.00  1.9695E-002  
  640.50  1.9553E-002  
  641.00  1.9461E-002  
  641.50  1.9412E-002  
  642.00  1.9297E-002  
  642.50  1.9169E-002  
  643.00  1.9022E-002  
  643.50  1.8836E-002  
  644.00  1.8649E-002  
  644.50  1.8393E-002  
  645.00  1.8144E-002  
  645.50  1.7949E-002  
  646.00  1.7799E-002  
  646.50  1.7690E-002  
  647.00  1.7656E-002  
  647.50  1.7578E-002  
  648.00  1.7425E-002  
  648.50  1.7170E-002  
  649.00  1.6909E-002  
  649.50  1.6735E-002  
  650.00  1.6614E-002  
  650.50  1.6516E-002  
  651.00  1.6424E-002  
  651.50  1.6289E-002  
  652.00  1.6117E-002  
  652.50  1.5922E-002  
  653.00  1.5723E-002  
  653.50  1.5598E-002  
  654.00  1.5485E-002  
  654.50  1.5369E-002  
  655.00  1.5252E-002  
  655.50  1.5096E-002  
  656.00  1.4905E-002  
  656.50  1.4655E-002  
  657.00  1.4446E-002  
  657.50  1.4274E-002  
  658.00  1.4141E-002  
  658.50  1.4002E-002  
  659.00  1.3844E-002  
  659.50  1.3695E-002  
  660.00  1.3512E-002  
  660.50  1.3376E-002  
  661.00  1.3271E-002  
  661.50  1.3205E-002  
  662.00  1.3040E-002  
  662.50  1.2800E-002  
  663.00  1.2612E-002  
  663.50  1.2501E-002  
  664.00  1.2386E-002  
  664.50  1.2220E-002  
  665.00  1.2036E-002  
  665.50  1.1848E-002  
  666.00  1.1691E-002  
  666.50  1.1607E-002  
  667.00  1.1604E-002  
  667.50  1.1550E-002  
  668.00  1.1394E-002  
  668.50  1.1196E-002  
  669.00  1.1079E-002  
  669.50  1.1031E-002  
  670.00  1.0926E-002  
  670.50  1.0820E-002  
  671.00  1.0642E-002  
  671.50  1.0490E-002  
  672.00  1.0342E-002  
  672.50  1.0208E-002  
  673.00  1.0058E-002  
  673.50  9.8406E-003  
  674.00  9.6747E-003  
  674.50  9.5694E-003  
  675.00  9.4974E-003  
  675.50  9.3980E-003  
  676.00  9.2744E-003  
  676.50  9.1448E-003  
  677.00  9.0177E-003  
  677.50  8.9204E-003  
  678.00  8.8249E-003  
  678.50  8.7563E-003  
  679.00  8.6395E-003  
  679.50  8.5208E-003  
  680.00  8.3672E-003  
