
# From lspdd.org
# 
# Name: INC Globe A19 Domestique
# Indice spectral Valeur 
# MSI 0.28 
# SLI 0.50 
# IPI 0.95 
# Pourcentage de bleu 12.0 
# Caractéristique Valeur 
# CCT calculée (K) 2604 
# CCT du fabricant (K) 2610 
# Tension (V) 120 
# Puissance (W) 100.0 
# Efficacité lumineuse (Lum/W) 11.0 
#
# Image: '/app/system/img_2s/2515/medium_image2.JPG?1413486051'
# Image: '/app/system/img_1s/2515/medium_image1.JPG?1413486052'
# 

  273.00  0.0000E+000  
  273.50  0.0000E+000  
  274.00  0.0000E+000  
  274.50  0.0000E+000  
  275.00  0.0000E+000  
  275.50  0.0000E+000  
  276.00  0.0000E+000  
  276.50  0.0000E+000  
  277.00  0.0000E+000  
  277.50  0.0000E+000  
  278.00  0.0000E+000  
  278.50  0.0000E+000  
  279.00  0.0000E+000  
  279.50  0.0000E+000  
  280.00  0.0000E+000  
  280.50  0.0000E+000  
  281.00  0.0000E+000  
  281.50  0.0000E+000  
  282.00  0.0000E+000  
  282.50  0.0000E+000  
  283.00  0.0000E+000  
  283.50  0.0000E+000  
  284.00  0.0000E+000  
  284.50  0.0000E+000  
  285.00  0.0000E+000  
  285.50  0.0000E+000  
  286.00  0.0000E+000  
  286.50  0.0000E+000  
  287.00  0.0000E+000  
  287.50  0.0000E+000  
  288.00  0.0000E+000  
  288.50  0.0000E+000  
  289.00  0.0000E+000  
  289.50  0.0000E+000  
  290.00  0.0000E+000  
  290.50  0.0000E+000  
  291.00  0.0000E+000  
  291.50  0.0000E+000  
  292.00  0.0000E+000  
  292.50  0.0000E+000  
  293.00  0.0000E+000  
  293.50  0.0000E+000  
  294.00  0.0000E+000  
  294.50  0.0000E+000  
  295.00  0.0000E+000  
  295.50  0.0000E+000  
  296.00  0.0000E+000  
  296.50  0.0000E+000  
  297.00  0.0000E+000  
  297.50  0.0000E+000  
  298.00  0.0000E+000  
  298.50  0.0000E+000  
  299.00  0.0000E+000  
  299.50  0.0000E+000  
  300.00  2.2567E-005  
  300.50  5.6661E-005  
  301.00  6.1038E-005  
  301.50  1.2111E-004  
  302.00  1.6754E-004  
  302.50  1.8084E-004  
  303.00  1.4290E-004  
  303.50  1.0269E-004  
  304.00  1.0287E-004  
  304.50  1.1759E-004  
  305.00  1.3156E-004  
  305.50  1.1132E-004  
  306.00  9.3697E-005  
  306.50  1.0368E-004  
  307.00  1.0215E-004  
  307.50  1.3340E-004  
  308.00  1.3333E-004  
  308.50  1.7239E-004  
  309.00  2.6669E-004  
  309.50  3.2509E-004  
  310.00  3.2344E-004  
  310.50  3.1492E-004  
  311.00  2.7877E-004  
  311.50  2.4660E-004  
  312.00  2.5491E-004  
  312.50  2.4560E-004  
  313.00  2.7016E-004  
  313.50  2.8845E-004  
  314.00  2.8601E-004  
  314.50  2.3981E-004  
  315.00  2.0030E-004  
  315.50  1.4282E-004  
  316.00  9.8005E-005  
  316.50  1.1665E-004  
  317.00  1.4600E-004  
  317.50  2.1933E-004  
  318.00  2.3899E-004  
  318.50  2.0750E-004  
  319.00  1.6584E-004  
  319.50  1.6970E-004  
  320.00  2.2554E-004  
  320.50  2.7543E-004  
  321.00  3.3181E-004  
  321.50  3.5224E-004  
  322.00  3.3042E-004  
  322.50  3.6612E-004  
  323.00  3.5533E-004  
  323.50  3.5165E-004  
  324.00  3.6055E-004  
  324.50  3.9506E-004  
  325.00  4.4244E-004  
  325.50  4.3664E-004  
  326.00  4.2471E-004  
  326.50  3.7410E-004  
  327.00  3.4234E-004  
  327.50  3.2872E-004  
  328.00  3.3937E-004  
  328.50  3.6150E-004  
  329.00  3.9231E-004  
  329.50  4.2670E-004  
  330.00  3.9139E-004  
  330.50  3.8287E-004  
  331.00  3.9321E-004  
  331.50  4.2851E-004  
  332.00  5.0136E-004  
  332.50  5.6882E-004  
  333.00  6.1597E-004  
  333.50  6.1644E-004  
  334.00  6.0996E-004  
  334.50  5.5735E-004  
  335.00  5.1931E-004  
  335.50  4.9913E-004  
  336.00  4.7673E-004  
  336.50  5.0584E-004  
  337.00  5.5842E-004  
  337.50  6.2716E-004  
  338.00  6.8343E-004  
  338.50  6.8237E-004  
  339.00  6.6099E-004  
  339.50  5.8885E-004  
  340.00  5.6802E-004  
  340.50  5.9298E-004  
  341.00  6.0433E-004  
  341.50  6.6920E-004  
  342.00  7.0824E-004  
  342.50  7.0903E-004  
  343.00  7.0370E-004  
  343.50  6.9826E-004  
  344.00  7.1727E-004  
  344.50  7.6238E-004  
  345.00  8.0240E-004  
  345.50  7.9117E-004  
  346.00  7.7560E-004  
  346.50  7.7697E-004  
  347.00  8.0582E-004  
  347.50  8.7123E-004  
  348.00  9.2529E-004  
  348.50  9.4930E-004  
  349.00  9.2669E-004  
  349.50  9.2604E-004  
  350.00  9.2261E-004  
  350.50  9.9174E-004  
  351.00  1.0602E-003  
  351.50  1.0715E-003  
  352.00  1.1041E-003  
  352.50  1.1254E-003  
  353.00  1.1829E-003  
  353.50  1.1684E-003  
  354.00  1.1682E-003  
  354.50  1.1317E-003  
  355.00  1.1081E-003  
  355.50  1.1497E-003  
  356.00  1.1153E-003  
  356.50  1.1299E-003  
  357.00  1.1804E-003  
  357.50  1.2128E-003  
  358.00  1.2517E-003  
  358.50  1.2373E-003  
  359.00  1.2610E-003  
  359.50  1.2769E-003  
  360.00  1.2981E-003  
  360.50  1.3254E-003  
  361.00  1.3066E-003  
  361.50  1.3195E-003  
  362.00  1.3057E-003  
  362.50  1.2900E-003  
  363.00  1.3273E-003  
  363.50  1.3565E-003  
  364.00  1.4668E-003  
  364.50  1.5387E-003  
  365.00  1.6298E-003  
  365.50  1.7148E-003  
  366.00  1.6531E-003  
  366.50  1.5865E-003  
  367.00  1.5260E-003  
  367.50  1.4731E-003  
  368.00  1.4853E-003  
  368.50  1.5479E-003  
  369.00  1.6233E-003  
  369.50  1.7794E-003  
  370.00  1.9093E-003  
  370.50  1.9565E-003  
  371.00  1.9604E-003  
  371.50  1.9546E-003  
  372.00  1.9726E-003  
  372.50  1.9941E-003  
  373.00  1.9755E-003  
  373.50  1.9478E-003  
  374.00  1.9401E-003  
  374.50  2.0051E-003  
  375.00  2.0581E-003  
  375.50  2.0692E-003  
  376.00  2.0529E-003  
  376.50  2.0482E-003  
  377.00  2.1190E-003  
  377.50  2.2345E-003  
  378.00  2.3138E-003  
  378.50  2.3184E-003  
  379.00  2.3023E-003  
  379.50  2.3008E-003  
  380.00  2.3227E-003  
  380.50  2.3580E-003  
  381.00  2.3848E-003  
  381.50  2.4137E-003  
  382.00  2.4602E-003  
  382.50  2.5028E-003  
  383.00  2.4887E-003  
  383.50  2.5207E-003  
  384.00  2.5392E-003  
  384.50  2.5852E-003  
  385.00  2.7001E-003  
  385.50  2.7657E-003  
  386.00  2.8428E-003  
  386.50  2.8987E-003  
  387.00  2.8535E-003  
  387.50  2.8395E-003  
  388.00  2.8122E-003  
  388.50  2.8526E-003  
  389.00  2.9110E-003  
  389.50  2.9880E-003  
  390.00  3.0743E-003  
  390.50  3.1255E-003  
  391.00  3.1252E-003  
  391.50  3.1685E-003  
  392.00  3.1993E-003  
  392.50  3.2350E-003  
  393.00  3.2332E-003  
  393.50  3.2110E-003  
  394.00  3.1966E-003  
  394.50  3.2342E-003  
  395.00  3.2707E-003  
  395.50  3.3154E-003  
  396.00  3.3517E-003  
  396.50  3.4607E-003  
  397.00  3.5424E-003  
  397.50  3.6047E-003  
  398.00  3.6919E-003  
  398.50  3.7287E-003  
  399.00  3.7848E-003  
  399.50  3.8085E-003  
  400.00  3.7597E-003  
  400.50  3.7669E-003  
  401.00  3.8299E-003  
  401.50  3.9132E-003  
  402.00  4.0072E-003  
  402.50  4.0668E-003  
  403.00  4.0794E-003  
  403.50  4.1287E-003  
  404.00  4.1849E-003  
  404.50  4.2791E-003  
  405.00  4.3347E-003  
  405.50  4.3930E-003  
  406.00  4.3667E-003  
  406.50  4.3440E-003  
  407.00  4.3972E-003  
  407.50  4.4176E-003  
  408.00  4.4611E-003  
  408.50  4.4674E-003  
  409.00  4.5073E-003  
  409.50  4.6240E-003  
  410.00  4.7254E-003  
  410.50  4.7780E-003  
  411.00  4.8296E-003  
  411.50  4.9194E-003  
  412.00  4.9282E-003  
  412.50  4.9383E-003  
  413.00  4.8770E-003  
  413.50  4.9040E-003  
  414.00  5.0378E-003  
  414.50  5.0826E-003  
  415.00  5.1179E-003  
  415.50  5.1413E-003  
  416.00  5.1653E-003  
  416.50  5.2645E-003  
  417.00  5.3806E-003  
  417.50  5.4118E-003  
  418.00  5.4676E-003  
  418.50  5.4629E-003  
  419.00  5.5068E-003  
  419.50  5.5992E-003  
  420.00  5.6659E-003  
  420.50  5.7278E-003  
  421.00  5.7000E-003  
  421.50  5.6898E-003  
  422.00  5.7257E-003  
  422.50  5.7921E-003  
  423.00  5.9329E-003  
  423.50  6.0341E-003  
  424.00  6.1539E-003  
  424.50  6.1706E-003  
  425.00  6.1881E-003  
  425.50  6.2202E-003  
  426.00  6.2787E-003  
  426.50  6.3976E-003  
  427.00  6.4781E-003  
  427.50  6.5192E-003  
  428.00  6.5746E-003  
  428.50  6.5941E-003  
  429.00  6.6640E-003  
  429.50  6.7708E-003  
  430.00  6.8401E-003  
  430.50  6.9022E-003  
  431.00  6.9714E-003  
  431.50  7.0235E-003  
  432.00  7.1140E-003  
  432.50  7.2304E-003  
  433.00  7.3005E-003  
  433.50  7.3603E-003  
  434.00  7.4536E-003  
  434.50  7.5135E-003  
  435.00  7.6061E-003  
  435.50  7.6917E-003  
  436.00  7.7390E-003  
  436.50  7.8001E-003  
  437.00  7.8720E-003  
  437.50  7.9245E-003  
  438.00  8.0047E-003  
  438.50  8.0220E-003  
  439.00  8.0403E-003  
  439.50  8.1136E-003  
  440.00  8.2003E-003  
  440.50  8.3045E-003  
  441.00  8.3809E-003  
  441.50  8.4093E-003  
  442.00  8.4049E-003  
  442.50  8.4448E-003  
  443.00  8.4982E-003  
  443.50  8.5951E-003  
  444.00  8.6960E-003  
  444.50  8.7771E-003  
  445.00  8.8622E-003  
  445.50  8.9448E-003  
  446.00  9.0439E-003  
  446.50  9.1342E-003  
  447.00  9.1979E-003  
  447.50  9.2982E-003  
  448.00  9.3711E-003  
  448.50  9.4315E-003  
  449.00  9.4992E-003  
  449.50  9.5778E-003  
  450.00  9.6934E-003  
  450.50  9.7984E-003  
  451.00  9.8079E-003  
  451.50  9.8698E-003  
  452.00  9.9371E-003  
  452.50  1.0107E-002  
  453.00  1.0185E-002  
  453.50  1.0201E-002  
  454.00  1.0204E-002  
  454.50  1.0263E-002  
  455.00  1.0407E-002  
  455.50  1.0502E-002  
  456.00  1.0583E-002  
  456.50  1.0679E-002  
  457.00  1.0803E-002  
  457.50  1.0938E-002  
  458.00  1.1022E-002  
  458.50  1.1042E-002  
  459.00  1.1087E-002  
  459.50  1.1152E-002  
  460.00  1.1236E-002  
  460.50  1.1339E-002  
  461.00  1.1493E-002  
  461.50  1.1619E-002  
  462.00  1.1758E-002  
  462.50  1.1888E-002  
  463.00  1.1959E-002  
  463.50  1.2028E-002  
  464.00  1.2143E-002  
  464.50  1.2214E-002  
  465.00  1.2279E-002  
  465.50  1.2344E-002  
  466.00  1.2370E-002  
  466.50  1.2492E-002  
  467.00  1.2544E-002  
  467.50  1.2600E-002  
  468.00  1.2693E-002  
  468.50  1.2831E-002  
  469.00  1.2965E-002  
  469.50  1.3034E-002  
  470.00  1.3089E-002  
  470.50  1.3166E-002  
  471.00  1.3257E-002  
  471.50  1.3370E-002  
  472.00  1.3494E-002  
  472.50  1.3581E-002  
  473.00  1.3655E-002  
  473.50  1.3747E-002  
  474.00  1.3879E-002  
  474.50  1.4047E-002  
  475.00  1.4161E-002  
  475.50  1.4215E-002  
  476.00  1.4253E-002  
  476.50  1.4359E-002  
  477.00  1.4493E-002  
  477.50  1.4572E-002  
  478.00  1.4650E-002  
  478.50  1.4718E-002  
  479.00  1.4857E-002  
  479.50  1.5010E-002  
  480.00  1.5142E-002  
  480.50  1.5227E-002  
  481.00  1.5303E-002  
  481.50  1.5377E-002  
  482.00  1.5429E-002  
  482.50  1.5524E-002  
  483.00  1.5591E-002  
  483.50  1.5691E-002  
  484.00  1.5787E-002  
  484.50  1.5853E-002  
  485.00  1.5971E-002  
  485.50  1.6079E-002  
  486.00  1.6195E-002  
  486.50  1.6332E-002  
  487.00  1.6425E-002  
  487.50  1.6523E-002  
  488.00  1.6633E-002  
  488.50  1.6761E-002  
  489.00  1.6935E-002  
  489.50  1.7069E-002  
  490.00  1.7167E-002  
  490.50  1.7279E-002  
  491.00  1.7428E-002  
  491.50  1.7561E-002  
  492.00  1.7699E-002  
  492.50  1.7807E-002  
  493.00  1.7928E-002  
  493.50  1.8070E-002  
  494.00  1.8194E-002  
  494.50  1.8375E-002  
  495.00  1.8525E-002  
  495.50  1.8645E-002  
  496.00  1.8700E-002  
  496.50  1.8778E-002  
  497.00  1.8888E-002  
  497.50  1.9046E-002  
  498.00  1.9194E-002  
  498.50  1.9317E-002  
  499.00  1.9464E-002  
  499.50  1.9604E-002  
  500.00  1.9737E-002  
  500.50  1.9860E-002  
  501.00  2.0012E-002  
  501.50  2.0190E-002  
  502.00  2.0382E-002  
  502.50  2.0515E-002  
  503.00  2.0663E-002  
  503.50  2.0804E-002  
  504.00  2.0999E-002  
  504.50  2.1200E-002  
  505.00  2.1385E-002  
  505.50  2.1552E-002  
  506.00  2.1675E-002  
  506.50  2.1787E-002  
  507.00  2.1928E-002  
  507.50  2.2075E-002  
  508.00  2.2206E-002  
  508.50  2.2358E-002  
  509.00  2.2570E-002  
  509.50  2.2808E-002  
  510.00  2.3059E-002  
  510.50  2.3208E-002  
  511.00  2.3325E-002  
  511.50  2.3407E-002  
  512.00  2.3578E-002  
  512.50  2.3781E-002  
  513.00  2.3985E-002  
  513.50  2.4194E-002  
  514.00  2.4398E-002  
  514.50  2.4629E-002  
  515.00  2.4780E-002  
  515.50  2.4914E-002  
  516.00  2.5100E-002  
  516.50  2.5400E-002  
  517.00  2.5724E-002  
  517.50  2.5934E-002  
  518.00  2.6092E-002  
  518.50  2.6221E-002  
  519.00  2.6382E-002  
  519.50  2.6497E-002  
  520.00  2.6658E-002  
  520.50  2.6877E-002  
  521.00  2.7121E-002  
  521.50  2.7362E-002  
  522.00  2.7493E-002  
  522.50  2.7626E-002  
  523.00  2.7775E-002  
  523.50  2.7986E-002  
  524.00  2.8260E-002  
  524.50  2.8504E-002  
  525.00  2.8734E-002  
  525.50  2.8928E-002  
  526.00  2.9082E-002  
  526.50  2.9297E-002  
  527.00  2.9498E-002  
  527.50  2.9812E-002  
  528.00  3.0066E-002  
  528.50  3.0309E-002  
  529.00  3.0480E-002  
  529.50  3.0630E-002  
  530.00  3.0834E-002  
  530.50  3.0999E-002  
  531.00  3.1225E-002  
  531.50  3.1437E-002  
  532.00  3.1643E-002  
  532.50  3.1794E-002  
  533.00  3.1953E-002  
  533.50  3.2142E-002  
  534.00  3.2414E-002  
  534.50  3.2685E-002  
  535.00  3.2944E-002  
  535.50  3.3153E-002  
  536.00  3.3353E-002  
  536.50  3.3534E-002  
  537.00  3.3770E-002  
  537.50  3.3977E-002  
  538.00  3.4236E-002  
  538.50  3.4448E-002  
  539.00  3.4605E-002  
  539.50  3.4749E-002  
  540.00  3.4894E-002  
  540.50  3.5076E-002  
  541.00  3.5263E-002  
  541.50  3.5458E-002  
  542.00  3.5728E-002  
  542.50  3.6027E-002  
  543.00  3.6366E-002  
  543.50  3.6610E-002  
  544.00  3.6811E-002  
  544.50  3.6982E-002  
  545.00  3.7130E-002  
  545.50  3.7341E-002  
  546.00  3.7526E-002  
  546.50  3.7736E-002  
  547.00  3.7919E-002  
  547.50  3.8134E-002  
  548.00  3.8343E-002  
  548.50  3.8608E-002  
  549.00  3.8900E-002  
  549.50  3.9167E-002  
  550.00  3.9362E-002  
  550.50  3.9539E-002  
  551.00  3.9665E-002  
  551.50  3.9904E-002  
  552.00  4.0117E-002  
  552.50  4.0331E-002  
  553.00  4.0551E-002  
  553.50  4.0806E-002  
  554.00  4.1068E-002  
  554.50  4.1297E-002  
  555.00  4.1447E-002  
  555.50  4.1668E-002  
  556.00  4.1909E-002  
  556.50  4.2093E-002  
  557.00  4.2284E-002  
  557.50  4.2556E-002  
  558.00  4.2891E-002  
  558.50  4.3217E-002  
  559.00  4.3372E-002  
  559.50  4.3563E-002  
  560.00  4.3784E-002  
  560.50  4.4012E-002  
  561.00  4.4203E-002  
  561.50  4.4279E-002  
  562.00  4.4373E-002  
  562.50  4.4552E-002  
  563.00  4.4732E-002  
  563.50  4.4932E-002  
  564.00  4.5131E-002  
  564.50  4.5357E-002  
  565.00  4.5641E-002  
  565.50  4.5949E-002  
  566.00  4.6181E-002  
  566.50  4.6398E-002  
  567.00  4.6550E-002  
  567.50  4.6685E-002  
  568.00  4.6820E-002  
  568.50  4.6969E-002  
  569.00  4.7174E-002  
  569.50  4.7468E-002  
  570.00  4.7652E-002  
  570.50  4.7712E-002  
  571.00  4.7802E-002  
  571.50  4.7959E-002  
  572.00  4.8205E-002  
  572.50  4.8390E-002  
  573.00  4.8568E-002  
  573.50  4.8704E-002  
  574.00  4.8919E-002  
  574.50  4.9047E-002  
  575.00  4.9219E-002  
  575.50  4.9399E-002  
  576.00  4.9644E-002  
  576.50  4.9867E-002  
  577.00  5.0092E-002  
  577.50  5.0365E-002  
  578.00  5.0598E-002  
  578.50  5.0842E-002  
  579.00  5.1020E-002  
  579.50  5.1252E-002  
  580.00  5.1447E-002  
  580.50  5.1657E-002  
  581.00  5.1805E-002  
  581.50  5.1944E-002  
  582.00  5.2039E-002  
  582.50  5.2155E-002  
  583.00  5.2336E-002  
  583.50  5.2576E-002  
  584.00  5.2730E-002  
  584.50  5.2931E-002  
  585.00  5.3147E-002  
  585.50  5.3447E-002  
  586.00  5.3708E-002  
  586.50  5.3845E-002  
  587.00  5.3835E-002  
  587.50  5.3936E-002  
  588.00  5.4079E-002  
  588.50  5.4349E-002  
  589.00  5.4445E-002  
  589.50  5.4506E-002  
  590.00  5.4726E-002  
  590.50  5.5024E-002  
  591.00  5.5273E-002  
  591.50  5.5439E-002  
  592.00  5.5519E-002  
  592.50  5.5722E-002  
  593.00  5.5914E-002  
  593.50  5.6049E-002  
  594.00  5.6213E-002  
  594.50  5.6319E-002  
  595.00  5.6481E-002  
  595.50  5.6619E-002  
  596.00  5.6853E-002  
  596.50  5.7034E-002  
  597.00  5.7269E-002  
  597.50  5.7461E-002  
  598.00  5.7666E-002  
  598.50  5.7708E-002  
  599.00  5.7707E-002  
  599.50  5.7817E-002  
  600.00  5.8003E-002  
  600.50  5.8199E-002  
  601.00  5.8315E-002  
  601.50  5.8483E-002  
  602.00  5.8685E-002  
  602.50  5.8898E-002  
  603.00  5.8989E-002  
  603.50  5.9132E-002  
  604.00  5.9290E-002  
  604.50  5.9516E-002  
  605.00  5.9657E-002  
  605.50  5.9826E-002  
  606.00  6.0050E-002  
  606.50  6.0294E-002  
  607.00  6.0454E-002  
  607.50  6.0594E-002  
  608.00  6.0735E-002  
  608.50  6.0900E-002  
  609.00  6.0956E-002  
  609.50  6.1012E-002  
  610.00  6.1023E-002  
  610.50  6.1068E-002  
  611.00  6.1156E-002  
  611.50  6.1406E-002  
  612.00  6.1632E-002  
  612.50  6.1808E-002  
  613.00  6.1822E-002  
  613.50  6.1901E-002  
  614.00  6.2058E-002  
  614.50  6.2383E-002  
  615.00  6.2634E-002  
  615.50  6.2860E-002  
  616.00  6.2934E-002  
  616.50  6.3086E-002  
  617.00  6.3183E-002  
  617.50  6.3304E-002  
  618.00  6.3395E-002  
  618.50  6.3524E-002  
  619.00  6.3639E-002  
  619.50  6.3650E-002  
  620.00  6.3662E-002  
  620.50  6.3682E-002  
  621.00  6.3919E-002  
  621.50  6.4227E-002  
  622.00  6.4521E-002  
  622.50  6.4661E-002  
  623.00  6.4729E-002  
  623.50  6.4739E-002  
  624.00  6.4838E-002  
  624.50  6.4998E-002  
  625.00  6.5189E-002  
  625.50  6.5314E-002  
  626.00  6.5357E-002  
  626.50  6.5389E-002  
  627.00  6.5545E-002  
  627.50  6.5781E-002  
  628.00  6.6035E-002  
  628.50  6.6109E-002  
  629.00  6.6143E-002  
  629.50  6.6177E-002  
  630.00  6.6424E-002  
  630.50  6.6541E-002  
  631.00  6.6625E-002  
  631.50  6.6728E-002  
  632.00  6.6816E-002  
  632.50  6.6942E-002  
  633.00  6.7069E-002  
  633.50  6.7271E-002  
  634.00  6.7420E-002  
  634.50  6.7574E-002  
  635.00  6.7695E-002  
  635.50  6.7803E-002  
  636.00  6.7840E-002  
  636.50  6.8025E-002  
  637.00  6.8277E-002  
  637.50  6.8456E-002  
  638.00  6.8555E-002  
  638.50  6.8598E-002  
  639.00  6.8761E-002  
  639.50  6.8837E-002  
  640.00  6.8998E-002  
  640.50  6.9146E-002  
  641.00  6.9181E-002  
  641.50  6.9228E-002  
  642.00  6.9326E-002  
  642.50  6.9556E-002  
  643.00  6.9755E-002  
  643.50  6.9886E-002  
  644.00  7.0042E-002  
  644.50  7.0215E-002  
  645.00  7.0381E-002  
  645.50  7.0463E-002  
  646.00  7.0534E-002  
  646.50  7.0641E-002  
  647.00  7.0814E-002  
  647.50  7.0954E-002  
  648.00  7.1028E-002  
  648.50  7.1025E-002  
  649.00  7.1149E-002  
  649.50  7.1303E-002  
  650.00  7.1590E-002  
  650.50  7.1844E-002  
  651.00  7.1984E-002  
  651.50  7.1953E-002  
  652.00  7.1914E-002  
  652.50  7.1988E-002  
  653.00  7.2256E-002  
  653.50  7.2531E-002  
  654.00  7.2771E-002  
  654.50  7.2772E-002  
  655.00  7.2590E-002  
  655.50  7.2420E-002  
  656.00  7.2416E-002  
  656.50  7.2598E-002  
  657.00  7.2805E-002  
  657.50  7.3002E-002  
  658.00  7.3144E-002  
  658.50  7.3341E-002  
  659.00  7.3483E-002  
  659.50  7.3683E-002  
  660.00  7.3800E-002  
  660.50  7.4008E-002  
  661.00  7.4139E-002  
  661.50  7.4202E-002  
  662.00  7.4147E-002  
  662.50  7.4184E-002  
  663.00  7.4203E-002  
  663.50  7.4258E-002  
  664.00  7.4188E-002  
  664.50  7.4299E-002  
  665.00  7.4480E-002  
  665.50  7.4640E-002  
  666.00  7.4727E-002  
  666.50  7.4811E-002  
  667.00  7.4957E-002  
  667.50  7.5071E-002  
  668.00  7.5109E-002  
  668.50  7.5112E-002  
  669.00  7.5246E-002  
  669.50  7.5362E-002  
  670.00  7.5388E-002  
  670.50  7.5255E-002  
  671.00  7.5227E-002  
  671.50  7.5302E-002  
  672.00  7.5483E-002  
  672.50  7.5625E-002  
  673.00  7.5782E-002  
  673.50  7.5887E-002  
  674.00  7.5964E-002  
  674.50  7.6141E-002  
  675.00  7.6364E-002  
  675.50  7.6480E-002  
  676.00  7.6373E-002  
  676.50  7.6356E-002  
  677.00  7.6577E-002  
  677.50  7.6894E-002  
  678.00  7.6900E-002  
  678.50  7.6948E-002  
  679.00  7.7073E-002  
  679.50  7.7361E-002  
  680.00  7.7472E-002  
