
# From lspdd.org
# 
# Name: Halo Sylvania PAR30 Domestique
# Indice spectral Valeur 
# MSI 0.31 
# SLI 0.53 
# IPI 0.91 
# Pourcentage de bleu 13.9 
# Caractéristique Valeur 
# CCT calculée (K) 2766 
# CCT du fabricant (K) 2770 
# Tension (V) 120 
# Puissance (W) 75.0 
# Efficacité lumineuse (Lum/W) 15.1 
#
# Image: '/app/system/img_2s/2527/medium_image2.JPG?1413486104'
# Image: '/app/system/img_1s/2527/medium_image1.JPG?1413486107'
# 

  273.00  0.0000E+000  
  273.50  0.0000E+000  
  274.00  0.0000E+000  
  274.50  0.0000E+000  
  275.00  0.0000E+000  
  275.50  0.0000E+000  
  276.00  0.0000E+000  
  276.50  0.0000E+000  
  277.00  0.0000E+000  
  277.50  0.0000E+000  
  278.00  0.0000E+000  
  278.50  0.0000E+000  
  279.00  0.0000E+000  
  279.50  0.0000E+000  
  280.00  0.0000E+000  
  280.50  0.0000E+000  
  281.00  0.0000E+000  
  281.50  0.0000E+000  
  282.00  0.0000E+000  
  282.50  0.0000E+000  
  283.00  0.0000E+000  
  283.50  0.0000E+000  
  284.00  0.0000E+000  
  284.50  0.0000E+000  
  285.00  0.0000E+000  
  285.50  0.0000E+000  
  286.00  0.0000E+000  
  286.50  0.0000E+000  
  287.00  0.0000E+000  
  287.50  0.0000E+000  
  288.00  0.0000E+000  
  288.50  0.0000E+000  
  289.00  0.0000E+000  
  289.50  0.0000E+000  
  290.00  0.0000E+000  
  290.50  0.0000E+000  
  291.00  0.0000E+000  
  291.50  0.0000E+000  
  292.00  0.0000E+000  
  292.50  0.0000E+000  
  293.00  0.0000E+000  
  293.50  0.0000E+000  
  294.00  0.0000E+000  
  294.50  0.0000E+000  
  295.00  0.0000E+000  
  295.50  0.0000E+000  
  296.00  0.0000E+000  
  296.50  0.0000E+000  
  297.00  0.0000E+000  
  297.50  0.0000E+000  
  298.00  0.0000E+000  
  298.50  0.0000E+000  
  299.00  0.0000E+000  
  299.50  0.0000E+000  
  300.00  2.8175E-005  
  300.50  8.0754E-005  
  301.00  7.0251E-005  
  301.50  7.9727E-005  
  302.00  1.1809E-004  
  302.50  1.3221E-004  
  303.00  8.8572E-005  
  303.50  2.6026E-005  
  304.00  1.4926E-005  
  304.50  2.9661E-005  
  305.00  6.4391E-005  
  305.50  1.3400E-004  
  306.00  1.6248E-004  
  306.50  1.8391E-004  
  307.00  1.8400E-004  
  307.50  1.7162E-004  
  308.00  1.2193E-004  
  308.50  1.2473E-004  
  309.00  1.6689E-004  
  309.50  1.9429E-004  
  310.00  2.1516E-004  
  310.50  1.8873E-004  
  311.00  1.4490E-004  
  311.50  7.8541E-005  
  312.00  4.3292E-005  
  312.50  5.2157E-005  
  313.00  9.1261E-005  
  313.50  1.4692E-004  
  314.00  1.7337E-004  
  314.50  1.8447E-004  
  315.00  1.8582E-004  
  315.50  1.5136E-004  
  316.00  1.4199E-004  
  316.50  1.7069E-004  
  317.00  1.8404E-004  
  317.50  2.6981E-004  
  318.00  3.1176E-004  
  318.50  2.8873E-004  
  319.00  2.4745E-004  
  319.50  2.1484E-004  
  320.00  1.8834E-004  
  320.50  1.8407E-004  
  321.00  2.3284E-004  
  321.50  2.2947E-004  
  322.00  2.3544E-004  
  322.50  2.8912E-004  
  323.00  3.2181E-004  
  323.50  3.3158E-004  
  324.00  3.4735E-004  
  324.50  3.6159E-004  
  325.00  3.4372E-004  
  325.50  3.5615E-004  
  326.00  3.4897E-004  
  326.50  3.3944E-004  
  327.00  3.7580E-004  
  327.50  3.9244E-004  
  328.00  4.0845E-004  
  328.50  4.1632E-004  
  329.00  4.1182E-004  
  329.50  4.1009E-004  
  330.00  4.0154E-004  
  330.50  3.5074E-004  
  331.00  3.4857E-004  
  331.50  3.3006E-004  
  332.00  3.4381E-004  
  332.50  4.1484E-004  
  333.00  4.7384E-004  
  333.50  5.5190E-004  
  334.00  6.0026E-004  
  334.50  5.8776E-004  
  335.00  5.8116E-004  
  335.50  5.8490E-004  
  336.00  5.9190E-004  
  336.50  6.1710E-004  
  337.00  6.4678E-004  
  337.50  6.9688E-004  
  338.00  7.5689E-004  
  338.50  7.8506E-004  
  339.00  7.9873E-004  
  339.50  7.4264E-004  
  340.00  7.1066E-004  
  340.50  7.1920E-004  
  341.00  7.6458E-004  
  341.50  8.3155E-004  
  342.00  8.9040E-004  
  342.50  9.0770E-004  
  343.00  9.2355E-004  
  343.50  9.9875E-004  
  344.00  1.0698E-003  
  344.50  1.1352E-003  
  345.00  1.1585E-003  
  345.50  1.1138E-003  
  346.00  1.0582E-003  
  346.50  1.0476E-003  
  347.00  1.0885E-003  
  347.50  1.1603E-003  
  348.00  1.2061E-003  
  348.50  1.2125E-003  
  349.00  1.1709E-003  
  349.50  1.1676E-003  
  350.00  1.2046E-003  
  350.50  1.2891E-003  
  351.00  1.3927E-003  
  351.50  1.4290E-003  
  352.00  1.4568E-003  
  352.50  1.4591E-003  
  353.00  1.5021E-003  
  353.50  1.5307E-003  
  354.00  1.5740E-003  
  354.50  1.5696E-003  
  355.00  1.5370E-003  
  355.50  1.5707E-003  
  356.00  1.5432E-003  
  356.50  1.5536E-003  
  357.00  1.5857E-003  
  357.50  1.6331E-003  
  358.00  1.7358E-003  
  358.50  1.8446E-003  
  359.00  1.9213E-003  
  359.50  1.9672E-003  
  360.00  2.0075E-003  
  360.50  2.0493E-003  
  361.00  2.0941E-003  
  361.50  2.1662E-003  
  362.00  2.1893E-003  
  362.50  2.2234E-003  
  363.00  2.2622E-003  
  363.50  2.3030E-003  
  364.00  2.3912E-003  
  364.50  2.4086E-003  
  365.00  2.4123E-003  
  365.50  2.4237E-003  
  366.00  2.4040E-003  
  366.50  2.4307E-003  
  367.00  2.4691E-003  
  367.50  2.4914E-003  
  368.00  2.5659E-003  
  368.50  2.6348E-003  
  369.00  2.6904E-003  
  369.50  2.7479E-003  
  370.00  2.7917E-003  
  370.50  2.8540E-003  
  371.00  2.9077E-003  
  371.50  2.9160E-003  
  372.00  2.9906E-003  
  372.50  3.0528E-003  
  373.00  3.1118E-003  
  373.50  3.1507E-003  
  374.00  3.1265E-003  
  374.50  3.1855E-003  
  375.00  3.2897E-003  
  375.50  3.3597E-003  
  376.00  3.4120E-003  
  376.50  3.4410E-003  
  377.00  3.4957E-003  
  377.50  3.5559E-003  
  378.00  3.6217E-003  
  378.50  3.6188E-003  
  379.00  3.6201E-003  
  379.50  3.6670E-003  
  380.00  3.7444E-003  
  380.50  3.8238E-003  
  381.00  3.9072E-003  
  381.50  3.9682E-003  
  382.00  4.0175E-003  
  382.50  4.0558E-003  
  383.00  4.0646E-003  
  383.50  4.1212E-003  
  384.00  4.1846E-003  
  384.50  4.2574E-003  
  385.00  4.3465E-003  
  385.50  4.3913E-003  
  386.00  4.4521E-003  
  386.50  4.5456E-003  
  387.00  4.5890E-003  
  387.50  4.6564E-003  
  388.00  4.6911E-003  
  388.50  4.7261E-003  
  389.00  4.7670E-003  
  389.50  4.8435E-003  
  390.00  4.9381E-003  
  390.50  5.0199E-003  
  391.00  5.0427E-003  
  391.50  5.1080E-003  
  392.00  5.1969E-003  
  392.50  5.2652E-003  
  393.00  5.3485E-003  
  393.50  5.3428E-003  
  394.00  5.3466E-003  
  394.50  5.3463E-003  
  395.00  5.3088E-003  
  395.50  5.3092E-003  
  396.00  5.3693E-003  
  396.50  5.5475E-003  
  397.00  5.7056E-003  
  397.50  5.8145E-003  
  398.00  5.9148E-003  
  398.50  5.9277E-003  
  399.00  5.9866E-003  
  399.50  6.0285E-003  
  400.00  6.0465E-003  
  400.50  6.0998E-003  
  401.00  6.1887E-003  
  401.50  6.2692E-003  
  402.00  6.3515E-003  
  402.50  6.4348E-003  
  403.00  6.4788E-003  
  403.50  6.5190E-003  
  404.00  6.5561E-003  
  404.50  6.6351E-003  
  405.00  6.7420E-003  
  405.50  6.9095E-003  
  406.00  7.0108E-003  
  406.50  7.0570E-003  
  407.00  7.1010E-003  
  407.50  7.0985E-003  
  408.00  7.1509E-003  
  408.50  7.1761E-003  
  409.00  7.2053E-003  
  409.50  7.2661E-003  
  410.00  7.3482E-003  
  410.50  7.4773E-003  
  411.00  7.5800E-003  
  411.50  7.6998E-003  
  412.00  7.7399E-003  
  412.50  7.8174E-003  
  413.00  7.8825E-003  
  413.50  7.9174E-003  
  414.00  8.0051E-003  
  414.50  8.0294E-003  
  415.00  8.1504E-003  
  415.50  8.2881E-003  
  416.00  8.4192E-003  
  416.50  8.5162E-003  
  417.00  8.5897E-003  
  417.50  8.6229E-003  
  418.00  8.6689E-003  
  418.50  8.7228E-003  
  419.00  8.7383E-003  
  419.50  8.8277E-003  
  420.00  8.9325E-003  
  420.50  9.0045E-003  
  421.00  9.0853E-003  
  421.50  9.0881E-003  
  422.00  9.1384E-003  
  422.50  9.2628E-003  
  423.00  9.4482E-003  
  423.50  9.6304E-003  
  424.00  9.7362E-003  
  424.50  9.7378E-003  
  425.00  9.7647E-003  
  425.50  9.8486E-003  
  426.00  9.9542E-003  
  426.50  1.0098E-002  
  427.00  1.0172E-002  
  427.50  1.0214E-002  
  428.00  1.0327E-002  
  428.50  1.0408E-002  
  429.00  1.0587E-002  
  429.50  1.0749E-002  
  430.00  1.0783E-002  
  430.50  1.0811E-002  
  431.00  1.0783E-002  
  431.50  1.0807E-002  
  432.00  1.0928E-002  
  432.50  1.1049E-002  
  433.00  1.1164E-002  
  433.50  1.1319E-002  
  434.00  1.1471E-002  
  434.50  1.1591E-002  
  435.00  1.1692E-002  
  435.50  1.1737E-002  
  436.00  1.1756E-002  
  436.50  1.1879E-002  
  437.00  1.1930E-002  
  437.50  1.2045E-002  
  438.00  1.2201E-002  
  438.50  1.2279E-002  
  439.00  1.2411E-002  
  439.50  1.2498E-002  
  440.00  1.2599E-002  
  440.50  1.2791E-002  
  441.00  1.2952E-002  
  441.50  1.3024E-002  
  442.00  1.3005E-002  
  442.50  1.2900E-002  
  443.00  1.2959E-002  
  443.50  1.3126E-002  
  444.00  1.3362E-002  
  444.50  1.3557E-002  
  445.00  1.3669E-002  
  445.50  1.3781E-002  
  446.00  1.3944E-002  
  446.50  1.4100E-002  
  447.00  1.4179E-002  
  447.50  1.4221E-002  
  448.00  1.4216E-002  
  448.50  1.4229E-002  
  449.00  1.4352E-002  
  449.50  1.4566E-002  
  450.00  1.4768E-002  
  450.50  1.4935E-002  
  451.00  1.5023E-002  
  451.50  1.5105E-002  
  452.00  1.5182E-002  
  452.50  1.5311E-002  
  453.00  1.5367E-002  
  453.50  1.5440E-002  
  454.00  1.5486E-002  
  454.50  1.5556E-002  
  455.00  1.5681E-002  
  455.50  1.5793E-002  
  456.00  1.5950E-002  
  456.50  1.6122E-002  
  457.00  1.6253E-002  
  457.50  1.6399E-002  
  458.00  1.6534E-002  
  458.50  1.6671E-002  
  459.00  1.6852E-002  
  459.50  1.6956E-002  
  460.00  1.7016E-002  
  460.50  1.7166E-002  
  461.00  1.7333E-002  
  461.50  1.7517E-002  
  462.00  1.7648E-002  
  462.50  1.7764E-002  
  463.00  1.7957E-002  
  463.50  1.8127E-002  
  464.00  1.8319E-002  
  464.50  1.8401E-002  
  465.00  1.8427E-002  
  465.50  1.8517E-002  
  466.00  1.8560E-002  
  466.50  1.8685E-002  
  467.00  1.8761E-002  
  467.50  1.8821E-002  
  468.00  1.8930E-002  
  468.50  1.9063E-002  
  469.00  1.9194E-002  
  469.50  1.9317E-002  
  470.00  1.9489E-002  
  470.50  1.9675E-002  
  471.00  1.9839E-002  
  471.50  1.9937E-002  
  472.00  1.9979E-002  
  472.50  2.0060E-002  
  473.00  2.0254E-002  
  473.50  2.0474E-002  
  474.00  2.0640E-002  
  474.50  2.0733E-002  
  475.00  2.0805E-002  
  475.50  2.0959E-002  
  476.00  2.1093E-002  
  476.50  2.1290E-002  
  477.00  2.1510E-002  
  477.50  2.1692E-002  
  478.00  2.1778E-002  
  478.50  2.1895E-002  
  479.00  2.2040E-002  
  479.50  2.2300E-002  
  480.00  2.2527E-002  
  480.50  2.2615E-002  
  481.00  2.2666E-002  
  481.50  2.2728E-002  
  482.00  2.2841E-002  
  482.50  2.2983E-002  
  483.00  2.3147E-002  
  483.50  2.3283E-002  
  484.00  2.3477E-002  
  484.50  2.3580E-002  
  485.00  2.3670E-002  
  485.50  2.3738E-002  
  486.00  2.3831E-002  
  486.50  2.3970E-002  
  487.00  2.4106E-002  
  487.50  2.4255E-002  
  488.00  2.4416E-002  
  488.50  2.4579E-002  
  489.00  2.4778E-002  
  489.50  2.4909E-002  
  490.00  2.5037E-002  
  490.50  2.5193E-002  
  491.00  2.5360E-002  
  491.50  2.5578E-002  
  492.00  2.5816E-002  
  492.50  2.5979E-002  
  493.00  2.6101E-002  
  493.50  2.6171E-002  
  494.00  2.6266E-002  
  494.50  2.6455E-002  
  495.00  2.6702E-002  
  495.50  2.6939E-002  
  496.00  2.7072E-002  
  496.50  2.7214E-002  
  497.00  2.7339E-002  
  497.50  2.7559E-002  
  498.00  2.7765E-002  
  498.50  2.7969E-002  
  499.00  2.8167E-002  
  499.50  2.8352E-002  
  500.00  2.8566E-002  
  500.50  2.8767E-002  
  501.00  2.8954E-002  
  501.50  2.9177E-002  
  502.00  2.9332E-002  
  502.50  2.9450E-002  
  503.00  2.9571E-002  
  503.50  2.9724E-002  
  504.00  3.0015E-002  
  504.50  3.0314E-002  
  505.00  3.0535E-002  
  505.50  3.0700E-002  
  506.00  3.0840E-002  
  506.50  3.1018E-002  
  507.00  3.1261E-002  
  507.50  3.1524E-002  
  508.00  3.1740E-002  
  508.50  3.1965E-002  
  509.00  3.2207E-002  
  509.50  3.2476E-002  
  510.00  3.2758E-002  
  510.50  3.2951E-002  
  511.00  3.3194E-002  
  511.50  3.3416E-002  
  512.00  3.3695E-002  
  512.50  3.3988E-002  
  513.00  3.4305E-002  
  513.50  3.4638E-002  
  514.00  3.4923E-002  
  514.50  3.5163E-002  
  515.00  3.5325E-002  
  515.50  3.5443E-002  
  516.00  3.5653E-002  
  516.50  3.5897E-002  
  517.00  3.6211E-002  
  517.50  3.6452E-002  
  518.00  3.6639E-002  
  518.50  3.6871E-002  
  519.00  3.7143E-002  
  519.50  3.7418E-002  
  520.00  3.7694E-002  
  520.50  3.7909E-002  
  521.00  3.8149E-002  
  521.50  3.8479E-002  
  522.00  3.8793E-002  
  522.50  3.9063E-002  
  523.00  3.9283E-002  
  523.50  3.9482E-002  
  524.00  3.9756E-002  
  524.50  4.0006E-002  
  525.00  4.0287E-002  
  525.50  4.0565E-002  
  526.00  4.0871E-002  
  526.50  4.1185E-002  
  527.00  4.1492E-002  
  527.50  4.1757E-002  
  528.00  4.2004E-002  
  528.50  4.2217E-002  
  529.00  4.2448E-002  
  529.50  4.2779E-002  
  530.00  4.3123E-002  
  530.50  4.3438E-002  
  531.00  4.3707E-002  
  531.50  4.3899E-002  
  532.00  4.4124E-002  
  532.50  4.4376E-002  
  533.00  4.4645E-002  
  533.50  4.4923E-002  
  534.00  4.5252E-002  
  534.50  4.5526E-002  
  535.00  4.5758E-002  
  535.50  4.5930E-002  
  536.00  4.6153E-002  
  536.50  4.6443E-002  
  537.00  4.6708E-002  
  537.50  4.6907E-002  
  538.00  4.7127E-002  
  538.50  4.7364E-002  
  539.00  4.7649E-002  
  539.50  4.7909E-002  
  540.00  4.8186E-002  
  540.50  4.8427E-002  
  541.00  4.8709E-002  
  541.50  4.8973E-002  
  542.00  4.9295E-002  
  542.50  4.9611E-002  
  543.00  4.9899E-002  
  543.50  5.0161E-002  
  544.00  5.0510E-002  
  544.50  5.0794E-002  
  545.00  5.1092E-002  
  545.50  5.1309E-002  
  546.00  5.1499E-002  
  546.50  5.1737E-002  
  547.00  5.1997E-002  
  547.50  5.2226E-002  
  548.00  5.2545E-002  
  548.50  5.2858E-002  
  549.00  5.3210E-002  
  549.50  5.3472E-002  
  550.00  5.3608E-002  
  550.50  5.3821E-002  
  551.00  5.4081E-002  
  551.50  5.4460E-002  
  552.00  5.4764E-002  
  552.50  5.4967E-002  
  553.00  5.5184E-002  
  553.50  5.5505E-002  
  554.00  5.5959E-002  
  554.50  5.6340E-002  
  555.00  5.6544E-002  
  555.50  5.6666E-002  
  556.00  5.6889E-002  
  556.50  5.7277E-002  
  557.00  5.7636E-002  
  557.50  5.7905E-002  
  558.00  5.8055E-002  
  558.50  5.8253E-002  
  559.00  5.8529E-002  
  559.50  5.8802E-002  
  560.00  5.9024E-002  
  560.50  5.9150E-002  
  561.00  5.9315E-002  
  561.50  5.9564E-002  
  562.00  5.9843E-002  
  562.50  6.0131E-002  
  563.00  6.0385E-002  
  563.50  6.0594E-002  
  564.00  6.0715E-002  
  564.50  6.0862E-002  
  565.00  6.1081E-002  
  565.50  6.1303E-002  
  566.00  6.1551E-002  
  566.50  6.1845E-002  
  567.00  6.2156E-002  
  567.50  6.2474E-002  
  568.00  6.2710E-002  
  568.50  6.2905E-002  
  569.00  6.3063E-002  
  569.50  6.3264E-002  
  570.00  6.3463E-002  
  570.50  6.3693E-002  
  571.00  6.3870E-002  
  571.50  6.4078E-002  
  572.00  6.4323E-002  
  572.50  6.4463E-002  
  573.00  6.4599E-002  
  573.50  6.4705E-002  
  574.00  6.4996E-002  
  574.50  6.5263E-002  
  575.00  6.5568E-002  
  575.50  6.5850E-002  
  576.00  6.6118E-002  
  576.50  6.6372E-002  
  577.00  6.6589E-002  
  577.50  6.6892E-002  
  578.00  6.7119E-002  
  578.50  6.7273E-002  
  579.00  6.7386E-002  
  579.50  6.7576E-002  
  580.00  6.7762E-002  
  580.50  6.7989E-002  
  581.00  6.8168E-002  
  581.50  6.8383E-002  
  582.00  6.8596E-002  
  582.50  6.8783E-002  
  583.00  6.8934E-002  
  583.50  6.9221E-002  
  584.00  6.9427E-002  
  584.50  6.9633E-002  
  585.00  6.9751E-002  
  585.50  6.9937E-002  
  586.00  7.0289E-002  
  586.50  7.0466E-002  
  587.00  7.0564E-002  
  587.50  7.0592E-002  
  588.00  7.0802E-002  
  588.50  7.1090E-002  
  589.00  7.1327E-002  
  589.50  7.1523E-002  
  590.00  7.1803E-002  
  590.50  7.2077E-002  
  591.00  7.2322E-002  
  591.50  7.2459E-002  
  592.00  7.2498E-002  
  592.50  7.2713E-002  
  593.00  7.2957E-002  
  593.50  7.3197E-002  
  594.00  7.3411E-002  
  594.50  7.3469E-002  
  595.00  7.3619E-002  
  595.50  7.3670E-002  
  596.00  7.3893E-002  
  596.50  7.4114E-002  
  597.00  7.4396E-002  
  597.50  7.4601E-002  
  598.00  7.4791E-002  
  598.50  7.4892E-002  
  599.00  7.4995E-002  
  599.50  7.5128E-002  
  600.00  7.5355E-002  
  600.50  7.5498E-002  
  601.00  7.5621E-002  
  601.50  7.5732E-002  
  602.00  7.5997E-002  
  602.50  7.6194E-002  
  603.00  7.6296E-002  
  603.50  7.6425E-002  
  604.00  7.6597E-002  
  604.50  7.6838E-002  
  605.00  7.6983E-002  
  605.50  7.7035E-002  
  606.00  7.7010E-002  
  606.50  7.7083E-002  
  607.00  7.7161E-002  
  607.50  7.7301E-002  
  608.00  7.7441E-002  
  608.50  7.7669E-002  
  609.00  7.7904E-002  
  609.50  7.8150E-002  
  610.00  7.8285E-002  
  610.50  7.8386E-002  
  611.00  7.8534E-002  
  611.50  7.8646E-002  
  612.00  7.8785E-002  
  612.50  7.8889E-002  
  613.00  7.9107E-002  
  613.50  7.9285E-002  
  614.00  7.9405E-002  
  614.50  7.9517E-002  
  615.00  7.9654E-002  
  615.50  7.9832E-002  
  616.00  7.9883E-002  
  616.50  7.9997E-002  
  617.00  8.0078E-002  
  617.50  8.0316E-002  
  618.00  8.0529E-002  
  618.50  8.0614E-002  
  619.00  8.0677E-002  
  619.50  8.0820E-002  
  620.00  8.1055E-002  
  620.50  8.1072E-002  
  621.00  8.1059E-002  
  621.50  8.1084E-002  
  622.00  8.1218E-002  
  622.50  8.1263E-002  
  623.00  8.1319E-002  
  623.50  8.1516E-002  
  624.00  8.1860E-002  
  624.50  8.2125E-002  
  625.00  8.2292E-002  
  625.50  8.2328E-002  
  626.00  8.2261E-002  
  626.50  8.2195E-002  
  627.00  8.2154E-002  
  627.50  8.2312E-002  
  628.00  8.2535E-002  
  628.50  8.2739E-002  
  629.00  8.2918E-002  
  629.50  8.3009E-002  
  630.00  8.3270E-002  
  630.50  8.3439E-002  
  631.00  8.3535E-002  
  631.50  8.3502E-002  
  632.00  8.3503E-002  
  632.50  8.3521E-002  
  633.00  8.3567E-002  
  633.50  8.3715E-002  
  634.00  8.4003E-002  
  634.50  8.4340E-002  
  635.00  8.4505E-002  
  635.50  8.4578E-002  
  636.00  8.4610E-002  
  636.50  8.4819E-002  
  637.00  8.4942E-002  
  637.50  8.5139E-002  
  638.00  8.5140E-002  
  638.50  8.5253E-002  
  639.00  8.5322E-002  
  639.50  8.5305E-002  
  640.00  8.5427E-002  
  640.50  8.5472E-002  
  641.00  8.5544E-002  
  641.50  8.5643E-002  
  642.00  8.5891E-002  
  642.50  8.6083E-002  
  643.00  8.6065E-002  
  643.50  8.6072E-002  
  644.00  8.6273E-002  
  644.50  8.6515E-002  
  645.00  8.6686E-002  
  645.50  8.6785E-002  
  646.00  8.6841E-002  
  646.50  8.6839E-002  
  647.00  8.6968E-002  
  647.50  8.7041E-002  
  648.00  8.7203E-002  
  648.50  8.7216E-002  
  649.00  8.7419E-002  
  649.50  8.7657E-002  
  650.00  8.7980E-002  
  650.50  8.8189E-002  
  651.00  8.8232E-002  
  651.50  8.8030E-002  
  652.00  8.7853E-002  
  652.50  8.7900E-002  
  653.00  8.8156E-002  
  653.50  8.8422E-002  
  654.00  8.8542E-002  
  654.50  8.8547E-002  
  655.00  8.8564E-002  
  655.50  8.8563E-002  
  656.00  8.8646E-002  
  656.50  8.8650E-002  
  657.00  8.8679E-002  
  657.50  8.8809E-002  
  658.00  8.9087E-002  
  658.50  8.9339E-002  
  659.00  8.9375E-002  
  659.50  8.9493E-002  
  660.00  8.9586E-002  
  660.50  8.9801E-002  
  661.00  8.9880E-002  
  661.50  8.9886E-002  
  662.00  8.9811E-002  
  662.50  8.9770E-002  
  663.00  8.9817E-002  
  663.50  8.9885E-002  
  664.00  8.9888E-002  
  664.50  8.9868E-002  
  665.00  8.9879E-002  
  665.50  8.9935E-002  
  666.00  9.0079E-002  
  666.50  9.0179E-002  
  667.00  9.0266E-002  
  667.50  9.0374E-002  
  668.00  9.0409E-002  
  668.50  9.0514E-002  
  669.00  9.0539E-002  
  669.50  9.0680E-002  
  670.00  9.0721E-002  
  670.50  9.0734E-002  
  671.00  9.0793E-002  
  671.50  9.0766E-002  
  672.00  9.0684E-002  
  672.50  9.0562E-002  
  673.00  9.0607E-002  
  673.50  9.0618E-002  
  674.00  9.0828E-002  
  674.50  9.1107E-002  
  675.00  9.1473E-002  
  675.50  9.1601E-002  
  676.00  9.1481E-002  
  676.50  9.1329E-002  
  677.00  9.1304E-002  
  677.50  9.1467E-002  
  678.00  9.1507E-002  
  678.50  9.1382E-002  
  679.00  9.1391E-002  
  679.50  9.1656E-002  
