
# From lspdd.org
# 
# Name: DEL Philips Claculite 4inch Encaster Domestique
# Indice spectral Valeur 
# MSI 0.32 
# SLI 0.50 
# IPI 0.64 
# Pourcentage de bleu 19.3 
# Caractéristique Valeur 
# CCT calculée (K) 3246 
# CCT du fabricant (K) 3500 
# Tension (V) ND 
# Puissance (W) 14.0 
# Efficacité lumineuse (Lum/W) ND 
#
# Image: '/app/system/img_2s/2528/medium_image2.jpg?1413486111'
# Image: '/app/system/img_1s/2528/medium_image1.jpg?1413486112'
# 

  273.00  0.0000E+000  
  273.50  0.0000E+000  
  274.00  0.0000E+000  
  274.50  0.0000E+000  
  275.00  0.0000E+000  
  275.50  0.0000E+000  
  276.00  0.0000E+000  
  276.50  0.0000E+000  
  277.00  0.0000E+000  
  277.50  0.0000E+000  
  278.00  0.0000E+000  
  278.50  0.0000E+000  
  279.00  0.0000E+000  
  279.50  0.0000E+000  
  280.00  0.0000E+000  
  280.50  0.0000E+000  
  281.00  0.0000E+000  
  281.50  0.0000E+000  
  282.00  0.0000E+000  
  282.50  0.0000E+000  
  283.00  0.0000E+000  
  283.50  0.0000E+000  
  284.00  0.0000E+000  
  284.50  0.0000E+000  
  285.00  0.0000E+000  
  285.50  0.0000E+000  
  286.00  0.0000E+000  
  286.50  0.0000E+000  
  287.00  0.0000E+000  
  287.50  0.0000E+000  
  288.00  0.0000E+000  
  288.50  0.0000E+000  
  289.00  0.0000E+000  
  289.50  0.0000E+000  
  290.00  0.0000E+000  
  290.50  0.0000E+000  
  291.00  0.0000E+000  
  291.50  0.0000E+000  
  292.00  0.0000E+000  
  292.50  0.0000E+000  
  293.00  0.0000E+000  
  293.50  0.0000E+000  
  294.00  0.0000E+000  
  294.50  0.0000E+000  
  295.00  0.0000E+000  
  295.50  0.0000E+000  
  296.00  0.0000E+000  
  296.50  0.0000E+000  
  297.00  0.0000E+000  
  297.50  0.0000E+000  
  298.00  0.0000E+000  
  298.50  0.0000E+000  
  299.00  0.0000E+000  
  299.50  0.0000E+000  
  300.00  1.1083E-005  
  300.50  9.9680E-006  
  301.00  0.0000E+000  
  301.50  0.0000E+000  
  302.00  0.0000E+000  
  302.50  0.0000E+000  
  303.00  0.0000E+000  
  303.50  0.0000E+000  
  304.00  0.0000E+000  
  304.50  0.0000E+000  
  305.00  0.0000E+000  
  305.50  2.0677E-005  
  306.00  2.5431E-005  
  306.50  6.3768E-005  
  307.00  6.5851E-005  
  307.50  8.1327E-006  
  308.00  0.0000E+000  
  308.50  0.0000E+000  
  309.00  0.0000E+000  
  309.50  0.0000E+000  
  310.00  0.0000E+000  
  310.50  0.0000E+000  
  311.00  0.0000E+000  
  311.50  0.0000E+000  
  312.00  0.0000E+000  
  312.50  4.6091E-007  
  313.00  4.1705E-005  
  313.50  2.0504E-005  
  314.00  1.4751E-007  
  314.50  0.0000E+000  
  315.00  0.0000E+000  
  315.50  0.0000E+000  
  316.00  2.2195E-006  
  316.50  2.1808E-005  
  317.00  2.8223E-005  
  317.50  0.0000E+000  
  318.00  0.0000E+000  
  318.50  0.0000E+000  
  319.00  0.0000E+000  
  319.50  0.0000E+000  
  320.00  0.0000E+000  
  320.50  0.0000E+000  
  321.00  0.0000E+000  
  321.50  1.3942E-005  
  322.00  3.8486E-005  
  322.50  7.8360E-005  
  323.00  1.1465E-004  
  323.50  1.0346E-004  
  324.00  8.7714E-005  
  324.50  6.7434E-005  
  325.00  7.2632E-005  
  325.50  3.3955E-005  
  326.00  0.0000E+000  
  326.50  0.0000E+000  
  327.00  0.0000E+000  
  327.50  0.0000E+000  
  328.00  0.0000E+000  
  328.50  0.0000E+000  
  329.00  0.0000E+000  
  329.50  0.0000E+000  
  330.00  0.0000E+000  
  330.50  0.0000E+000  
  331.00  0.0000E+000  
  331.50  0.0000E+000  
  332.00  0.0000E+000  
  332.50  0.0000E+000  
  333.00  0.0000E+000  
  333.50  0.0000E+000  
  334.00  0.0000E+000  
  334.50  0.0000E+000  
  335.00  0.0000E+000  
  335.50  0.0000E+000  
  336.00  0.0000E+000  
  336.50  0.0000E+000  
  337.00  0.0000E+000  
  337.50  0.0000E+000  
  338.00  0.0000E+000  
  338.50  0.0000E+000  
  339.00  0.0000E+000  
  339.50  8.6456E-006  
  340.00  4.7844E-005  
  340.50  9.1084E-005  
  341.00  7.4836E-005  
  341.50  2.2228E-005  
  342.00  4.0532E-007  
  342.50  0.0000E+000  
  343.00  0.0000E+000  
  343.50  0.0000E+000  
  344.00  1.9329E-005  
  344.50  8.9678E-005  
  345.00  1.2056E-004  
  345.50  1.0154E-004  
  346.00  4.9511E-005  
  346.50  3.7930E-006  
  347.00  0.0000E+000  
  347.50  0.0000E+000  
  348.00  0.0000E+000  
  348.50  0.0000E+000  
  349.00  0.0000E+000  
  349.50  0.0000E+000  
  350.00  2.3373E-005  
  350.50  4.8431E-005  
  351.00  4.5694E-005  
  351.50  7.1795E-006  
  352.00  0.0000E+000  
  352.50  0.0000E+000  
  353.00  1.2408E-006  
  353.50  6.8158E-006  
  354.00  1.6767E-005  
  354.50  0.0000E+000  
  355.00  0.0000E+000  
  355.50  0.0000E+000  
  356.00  0.0000E+000  
  356.50  0.0000E+000  
  357.00  0.0000E+000  
  357.50  0.0000E+000  
  358.00  1.2255E-005  
  358.50  1.2195E-005  
  359.00  5.3352E-006  
  359.50  7.0704E-006  
  360.00  1.4346E-006  
  360.50  7.0828E-007  
  361.00  2.0942E-005  
  361.50  0.0000E+000  
  362.00  0.0000E+000  
  362.50  0.0000E+000  
  363.00  3.1004E-005  
  363.50  7.2943E-005  
  364.00  1.0561E-004  
  364.50  7.8066E-005  
  365.00  2.7111E-005  
  365.50  1.0266E-005  
  366.00  3.5523E-005  
  366.50  4.6428E-005  
  367.00  2.3114E-005  
  367.50  0.0000E+000  
  368.00  0.0000E+000  
  368.50  0.0000E+000  
  369.00  0.0000E+000  
  369.50  2.5033E-005  
  370.00  4.7704E-005  
  370.50  1.8976E-005  
  371.00  0.0000E+000  
  371.50  0.0000E+000  
  372.00  1.4089E-005  
  372.50  7.6399E-005  
  373.00  1.3693E-004  
  373.50  1.1058E-004  
  374.00  1.1266E-004  
  374.50  9.6817E-005  
  375.00  4.7640E-005  
  375.50  2.8871E-005  
  376.00  2.2536E-005  
  376.50  4.6501E-005  
  377.00  9.4192E-005  
  377.50  9.4010E-005  
  378.00  7.7770E-005  
  378.50  2.4591E-005  
  379.00  0.0000E+000  
  379.50  4.6983E-006  
  380.00  5.0693E-005  
  380.50  1.2401E-004  
  381.00  1.6843E-004  
  381.50  1.2175E-004  
  382.00  9.9903E-005  
  382.50  7.4183E-005  
  383.00  7.3180E-005  
  383.50  7.7476E-005  
  384.00  8.0047E-005  
  384.50  9.3924E-005  
  385.00  1.0837E-004  
  385.50  9.6306E-005  
  386.00  5.9057E-005  
  386.50  8.2359E-006  
  387.00  0.0000E+000  
  387.50  0.0000E+000  
  388.00  0.0000E+000  
  388.50  0.0000E+000  
  389.00  0.0000E+000  
  389.50  1.8192E-005  
  390.00  7.3423E-005  
  390.50  1.0601E-004  
  391.00  8.8659E-005  
  391.50  8.4903E-005  
  392.00  8.9372E-005  
  392.50  1.0590E-004  
  393.00  1.1969E-004  
  393.50  1.3306E-004  
  394.00  1.2946E-004  
  394.50  1.6998E-004  
  395.00  1.6242E-004  
  395.50  1.9310E-004  
  396.00  2.1098E-004  
  396.50  2.1943E-004  
  397.00  2.4895E-004  
  397.50  2.4101E-004  
  398.00  2.0028E-004  
  398.50  1.2129E-004  
  399.00  1.4883E-004  
  399.50  1.6686E-004  
  400.00  2.1357E-004  
  400.50  1.9665E-004  
  401.00  1.3371E-004  
  401.50  1.3792E-004  
  402.00  1.3577E-004  
  402.50  1.4955E-004  
  403.00  1.5307E-004  
  403.50  1.6261E-004  
  404.00  1.9806E-004  
  404.50  2.4247E-004  
  405.00  2.4296E-004  
  405.50  2.3788E-004  
  406.00  2.3006E-004  
  406.50  2.7065E-004  
  407.00  3.3133E-004  
  407.50  3.9707E-004  
  408.00  4.4605E-004  
  408.50  4.5115E-004  
  409.00  4.7967E-004  
  409.50  5.2670E-004  
  410.00  5.6119E-004  
  410.50  6.2316E-004  
  411.00  6.2587E-004  
  411.50  6.7883E-004  
  412.00  7.3016E-004  
  412.50  8.0517E-004  
  413.00  8.8161E-004  
  413.50  9.0530E-004  
  414.00  9.3357E-004  
  414.50  9.9807E-004  
  415.00  1.0669E-003  
  415.50  1.1946E-003  
  416.00  1.3491E-003  
  416.50  1.4523E-003  
  417.00  1.5626E-003  
  417.50  1.6103E-003  
  418.00  1.6540E-003  
  418.50  1.7787E-003  
  419.00  1.9338E-003  
  419.50  2.1591E-003  
  420.00  2.3701E-003  
  420.50  2.5774E-003  
  421.00  2.7992E-003  
  421.50  2.9739E-003  
  422.00  3.1783E-003  
  422.50  3.3619E-003  
  423.00  3.5749E-003  
  423.50  3.9287E-003  
  424.00  4.3128E-003  
  424.50  4.6347E-003  
  425.00  4.9506E-003  
  425.50  5.2258E-003  
  426.00  5.6058E-003  
  426.50  6.0000E-003  
  427.00  6.3657E-003  
  427.50  6.8510E-003  
  428.00  7.3389E-003  
  428.50  7.8905E-003  
  429.00  8.3941E-003  
  429.50  8.8699E-003  
  430.00  9.4329E-003  
  430.50  1.0005E-002  
  431.00  1.0583E-002  
  431.50  1.1164E-002  
  432.00  1.1769E-002  
  432.50  1.2462E-002  
  433.00  1.3233E-002  
  433.50  1.3974E-002  
  434.00  1.4699E-002  
  434.50  1.5517E-002  
  435.00  1.6359E-002  
  435.50  1.7290E-002  
  436.00  1.8255E-002  
  436.50  1.9226E-002  
  437.00  2.0255E-002  
  437.50  2.1284E-002  
  438.00  2.2380E-002  
  438.50  2.3360E-002  
  439.00  2.4474E-002  
  439.50  2.5691E-002  
  440.00  2.7019E-002  
  440.50  2.8472E-002  
  441.00  2.9822E-002  
  441.50  3.1130E-002  
  442.00  3.2405E-002  
  442.50  3.3716E-002  
  443.00  3.5144E-002  
  443.50  3.6675E-002  
  444.00  3.8204E-002  
  444.50  3.9766E-002  
  445.00  4.1314E-002  
  445.50  4.2890E-002  
  446.00  4.4449E-002  
  446.50  4.5848E-002  
  447.00  4.7070E-002  
  447.50  4.8157E-002  
  448.00  4.9092E-002  
  448.50  4.9997E-002  
  449.00  5.0858E-002  
  449.50  5.1724E-002  
  450.00  5.2509E-002  
  450.50  5.2949E-002  
  451.00  5.3217E-002  
  451.50  5.3136E-002  
  452.00  5.2911E-002  
  452.50  5.2405E-002  
  453.00  5.1590E-002  
  453.50  5.0587E-002  
  454.00  4.9445E-002  
  454.50  4.8258E-002  
  455.00  4.7069E-002  
  455.50  4.5783E-002  
  456.00  4.4326E-002  
  456.50  4.2819E-002  
  457.00  4.1229E-002  
  457.50  3.9558E-002  
  458.00  3.7935E-002  
  458.50  3.6240E-002  
  459.00  3.4648E-002  
  459.50  3.3090E-002  
  460.00  3.1536E-002  
  460.50  3.0076E-002  
  461.00  2.8631E-002  
  461.50  2.7350E-002  
  462.00  2.6191E-002  
  462.50  2.5107E-002  
  463.00  2.4156E-002  
  463.50  2.3211E-002  
  464.00  2.2308E-002  
  464.50  2.1426E-002  
  465.00  2.0594E-002  
  465.50  1.9894E-002  
  466.00  1.9238E-002  
  466.50  1.8523E-002  
  467.00  1.7809E-002  
  467.50  1.7213E-002  
  468.00  1.6729E-002  
  468.50  1.6309E-002  
  469.00  1.5876E-002  
  469.50  1.5387E-002  
  470.00  1.4903E-002  
  470.50  1.4489E-002  
  471.00  1.4049E-002  
  471.50  1.3556E-002  
  472.00  1.3020E-002  
  472.50  1.2485E-002  
  473.00  1.2127E-002  
  473.50  1.1836E-002  
  474.00  1.1546E-002  
  474.50  1.1184E-002  
  475.00  1.0759E-002  
  475.50  1.0367E-002  
  476.00  1.0036E-002  
  476.50  9.7447E-003  
  477.00  9.4999E-003  
  477.50  9.2456E-003  
  478.00  9.0009E-003  
  478.50  8.7645E-003  
  479.00  8.5491E-003  
  479.50  8.3802E-003  
  480.00  8.2110E-003  
  480.50  8.0583E-003  
  481.00  7.9030E-003  
  481.50  7.7664E-003  
  482.00  7.6724E-003  
  482.50  7.5674E-003  
  483.00  7.4930E-003  
  483.50  7.4047E-003  
  484.00  7.2954E-003  
  484.50  7.2578E-003  
  485.00  7.1887E-003  
  485.50  7.1294E-003  
  486.00  7.1009E-003  
  486.50  7.0833E-003  
  487.00  7.1200E-003  
  487.50  7.1631E-003  
  488.00  7.1602E-003  
  488.50  7.1671E-003  
  489.00  7.1680E-003  
  489.50  7.2120E-003  
  490.00  7.3154E-003  
  490.50  7.4208E-003  
  491.00  7.5116E-003  
  491.50  7.5948E-003  
  492.00  7.6535E-003  
  492.50  7.7608E-003  
  493.00  7.9170E-003  
  493.50  8.1029E-003  
  494.00  8.2689E-003  
  494.50  8.4356E-003  
  495.00  8.6233E-003  
  495.50  8.8971E-003  
  496.00  9.1837E-003  
  496.50  9.4932E-003  
  497.00  9.7740E-003  
  497.50  1.0071E-002  
  498.00  1.0403E-002  
  498.50  1.0737E-002  
  499.00  1.1138E-002  
  499.50  1.1553E-002  
  500.00  1.1982E-002  
  500.50  1.2396E-002  
  501.00  1.2760E-002  
  501.50  1.3134E-002  
  502.00  1.3541E-002  
  502.50  1.3999E-002  
  503.00  1.4542E-002  
  503.50  1.5099E-002  
  504.00  1.5712E-002  
  504.50  1.6345E-002  
  505.00  1.6927E-002  
  505.50  1.7510E-002  
  506.00  1.8027E-002  
  506.50  1.8573E-002  
  507.00  1.9152E-002  
  507.50  1.9801E-002  
  508.00  2.0471E-002  
  508.50  2.1124E-002  
  509.00  2.1775E-002  
  509.50  2.2440E-002  
  510.00  2.3155E-002  
  510.50  2.3896E-002  
  511.00  2.4664E-002  
  511.50  2.5384E-002  
  512.00  2.6118E-002  
  512.50  2.6810E-002  
  513.00  2.7497E-002  
  513.50  2.8210E-002  
  514.00  2.8882E-002  
  514.50  2.9593E-002  
  515.00  3.0302E-002  
  515.50  3.0990E-002  
  516.00  3.1741E-002  
  516.50  3.2510E-002  
  517.00  3.3319E-002  
  517.50  3.4150E-002  
  518.00  3.4921E-002  
  518.50  3.5710E-002  
  519.00  3.6451E-002  
  519.50  3.7156E-002  
  520.00  3.7919E-002  
  520.50  3.8612E-002  
  521.00  3.9385E-002  
  521.50  4.0152E-002  
  522.00  4.0896E-002  
  522.50  4.1673E-002  
  523.00  4.2316E-002  
  523.50  4.2970E-002  
  524.00  4.3618E-002  
  524.50  4.4295E-002  
  525.00  4.4984E-002  
  525.50  4.5645E-002  
  526.00  4.6244E-002  
  526.50  4.6904E-002  
  527.00  4.7512E-002  
  527.50  4.8139E-002  
  528.00  4.8739E-002  
  528.50  4.9326E-002  
  529.00  4.9910E-002  
  529.50  5.0490E-002  
  530.00  5.1066E-002  
  530.50  5.1679E-002  
  531.00  5.2289E-002  
  531.50  5.2877E-002  
  532.00  5.3461E-002  
  532.50  5.4026E-002  
  533.00  5.4571E-002  
  533.50  5.5124E-002  
  534.00  5.5632E-002  
  534.50  5.6134E-002  
  535.00  5.6611E-002  
  535.50  5.7074E-002  
  536.00  5.7554E-002  
  536.50  5.8027E-002  
  537.00  5.8532E-002  
  537.50  5.9003E-002  
  538.00  5.9483E-002  
  538.50  5.9979E-002  
  539.00  6.0423E-002  
  539.50  6.0856E-002  
  540.00  6.1252E-002  
  540.50  6.1688E-002  
  541.00  6.2141E-002  
  541.50  6.2558E-002  
  542.00  6.2881E-002  
  542.50  6.3189E-002  
  543.00  6.3501E-002  
  543.50  6.3816E-002  
  544.00  6.4185E-002  
  544.50  6.4569E-002  
  545.00  6.4960E-002  
  545.50  6.5329E-002  
  546.00  6.5675E-002  
  546.50  6.5974E-002  
  547.00  6.6277E-002  
  547.50  6.6468E-002  
  548.00  6.6677E-002  
  548.50  6.6908E-002  
  549.00  6.7286E-002  
  549.50  6.7613E-002  
  550.00  6.7955E-002  
  550.50  6.8242E-002  
  551.00  6.8569E-002  
  551.50  6.8957E-002  
  552.00  6.9201E-002  
  552.50  6.9470E-002  
  553.00  6.9632E-002  
  553.50  6.9866E-002  
  554.00  7.0067E-002  
  554.50  7.0291E-002  
  555.00  7.0521E-002  
  555.50  7.0780E-002  
  556.00  7.1111E-002  
  556.50  7.1349E-002  
  557.00  7.1580E-002  
  557.50  7.1767E-002  
  558.00  7.1980E-002  
  558.50  7.2341E-002  
  559.00  7.2668E-002  
  559.50  7.2902E-002  
  560.00  7.3116E-002  
  560.50  7.3249E-002  
  561.00  7.3439E-002  
  561.50  7.3588E-002  
  562.00  7.3665E-002  
  562.50  7.3770E-002  
  563.00  7.3903E-002  
  563.50  7.4063E-002  
  564.00  7.4173E-002  
  564.50  7.4172E-002  
  565.00  7.4187E-002  
  565.50  7.4371E-002  
  566.00  7.4634E-002  
  566.50  7.4771E-002  
  567.00  7.4772E-002  
  567.50  7.4754E-002  
  568.00  7.4865E-002  
  568.50  7.5063E-002  
  569.00  7.5208E-002  
  569.50  7.5281E-002  
  570.00  7.5330E-002  
  570.50  7.5408E-002  
  571.00  7.5588E-002  
  571.50  7.5718E-002  
  572.00  7.5853E-002  
  572.50  7.5918E-002  
  573.00  7.5951E-002  
  573.50  7.6011E-002  
  574.00  7.6138E-002  
  574.50  7.6258E-002  
  575.00  7.6374E-002  
  575.50  7.6437E-002  
  576.00  7.6475E-002  
  576.50  7.6530E-002  
  577.00  7.6540E-002  
  577.50  7.6626E-002  
  578.00  7.6670E-002  
  578.50  7.6789E-002  
  579.00  7.6825E-002  
  579.50  7.6876E-002  
  580.00  7.6937E-002  
  580.50  7.7051E-002  
  581.00  7.7155E-002  
  581.50  7.7239E-002  
  582.00  7.7246E-002  
  582.50  7.7218E-002  
  583.00  7.7124E-002  
  583.50  7.7104E-002  
  584.00  7.7103E-002  
  584.50  7.7212E-002  
  585.00  7.7165E-002  
  585.50  7.7167E-002  
  586.00  7.7135E-002  
  586.50  7.7190E-002  
  587.00  7.7247E-002  
  587.50  7.7232E-002  
  588.00  7.7210E-002  
  588.50  7.7207E-002  
  589.00  7.7250E-002  
  589.50  7.7261E-002  
  590.00  7.7295E-002  
  590.50  7.7340E-002  
  591.00  7.7272E-002  
  591.50  7.7204E-002  
  592.00  7.6982E-002  
  592.50  7.7030E-002  
  593.00  7.7021E-002  
  593.50  7.7097E-002  
  594.00  7.7076E-002  
  594.50  7.7035E-002  
  595.00  7.7052E-002  
  595.50  7.6907E-002  
  596.00  7.6826E-002  
  596.50  7.6659E-002  
  597.00  7.6622E-002  
  597.50  7.6522E-002  
  598.00  7.6494E-002  
  598.50  7.6520E-002  
  599.00  7.6525E-002  
  599.50  7.6322E-002  
  600.00  7.6161E-002  
  600.50  7.6042E-002  
  601.00  7.5942E-002  
  601.50  7.5744E-002  
  602.00  7.5561E-002  
  602.50  7.5472E-002  
  603.00  7.5434E-002  
  603.50  7.5324E-002  
  604.00  7.5316E-002  
  604.50  7.5317E-002  
  605.00  7.5294E-002  
  605.50  7.5143E-002  
  606.00  7.4989E-002  
  606.50  7.5001E-002  
  607.00  7.4917E-002  
  607.50  7.4625E-002  
  608.00  7.4285E-002  
  608.50  7.4078E-002  
  609.00  7.4109E-002  
  609.50  7.4000E-002  
  610.00  7.3818E-002  
  610.50  7.3661E-002  
  611.00  7.3463E-002  
  611.50  7.3258E-002  
  612.00  7.3067E-002  
  612.50  7.2960E-002  
  613.00  7.3032E-002  
  613.50  7.2892E-002  
  614.00  7.2704E-002  
  614.50  7.2372E-002  
  615.00  7.2164E-002  
  615.50  7.1915E-002  
  616.00  7.1681E-002  
  616.50  7.1488E-002  
  617.00  7.1376E-002  
  617.50  7.1338E-002  
  618.00  7.1250E-002  
  618.50  7.1131E-002  
  619.00  7.0880E-002  
  619.50  7.0618E-002  
  620.00  7.0337E-002  
  620.50  7.0106E-002  
  621.00  6.9899E-002  
  621.50  6.9662E-002  
  622.00  6.9361E-002  
  622.50  6.9000E-002  
  623.00  6.8631E-002  
  623.50  6.8459E-002  
  624.00  6.8287E-002  
  624.50  6.8108E-002  
  625.00  6.7884E-002  
  625.50  6.7697E-002  
  626.00  6.7476E-002  
  626.50  6.7131E-002  
  627.00  6.6776E-002  
  627.50  6.6531E-002  
  628.00  6.6313E-002  
  628.50  6.6056E-002  
  629.00  6.5738E-002  
  629.50  6.5456E-002  
  630.00  6.5299E-002  
  630.50  6.5076E-002  
  631.00  6.4810E-002  
  631.50  6.4521E-002  
  632.00  6.4234E-002  
  632.50  6.3816E-002  
  633.00  6.3388E-002  
  633.50  6.2946E-002  
  634.00  6.2769E-002  
  634.50  6.2579E-002  
  635.00  6.2419E-002  
  635.50  6.2099E-002  
  636.00  6.1588E-002  
  636.50  6.1145E-002  
  637.00  6.0829E-002  
  637.50  6.0732E-002  
  638.00  6.0544E-002  
  638.50  6.0212E-002  
  639.00  5.9884E-002  
  639.50  5.9550E-002  
  640.00  5.9327E-002  
  640.50  5.8904E-002  
  641.00  5.8458E-002  
  641.50  5.8056E-002  
  642.00  5.7824E-002  
  642.50  5.7619E-002  
  643.00  5.7238E-002  
  643.50  5.6904E-002  
  644.00  5.6564E-002  
  644.50  5.6293E-002  
  645.00  5.5997E-002  
  645.50  5.5644E-002  
  646.00  5.5309E-002  
  646.50  5.4904E-002  
  647.00  5.4585E-002  
  647.50  5.4176E-002  
  648.00  5.3696E-002  
  648.50  5.3198E-002  
  649.00  5.2836E-002  
  649.50  5.2519E-002  
  650.00  5.2198E-002  
  650.50  5.1855E-002  
  651.00  5.1416E-002  
  651.50  5.0946E-002  
  652.00  5.0537E-002  
  652.50  5.0235E-002  
  653.00  4.9959E-002  
  653.50  4.9642E-002  
  654.00  4.9331E-002  
  654.50  4.8987E-002  
  655.00  4.8658E-002  
  655.50  4.8298E-002  
  656.00  4.7922E-002  
  656.50  4.7523E-002  
  657.00  4.7051E-002  
  657.50  4.6591E-002  
  658.00  4.6023E-002  
  658.50  4.5624E-002  
  659.00  4.5291E-002  
  659.50  4.5061E-002  
  660.00  4.4760E-002  
  660.50  4.4433E-002  
  661.00  4.4053E-002  
  661.50  4.3730E-002  
  662.00  4.3435E-002  
  662.50  4.3152E-002  
  663.00  4.2729E-002  
  663.50  4.2267E-002  
  664.00  4.1930E-002  
  664.50  4.1615E-002  
  665.00  4.1296E-002  
  665.50  4.0882E-002  
  666.00  4.0481E-002  
  666.50  4.0101E-002  
  667.00  3.9687E-002  
  667.50  3.9285E-002  
  668.00  3.8960E-002  
  668.50  3.8612E-002  
  669.00  3.8341E-002  
  669.50  3.7901E-002  
  670.00  3.7514E-002  
  670.50  3.7081E-002  
  671.00  3.6759E-002  
  671.50  3.6407E-002  
  672.00  3.6003E-002  
  672.50  3.5655E-002  
  673.00  3.5384E-002  
  673.50  3.5146E-002  
  674.00  3.4862E-002  
  674.50  3.4615E-002  
  675.00  3.4297E-002  
  675.50  3.3935E-002  
  676.00  3.3488E-002  
  676.50  3.3198E-002  
  677.00  3.2835E-002  
  677.50  3.2498E-002  
  678.00  3.2126E-002  
  678.50  3.1877E-002  
  679.00  3.1700E-002  
  679.50  3.1454E-002  
