
# From lspdd.org
# 
# Name: LFC Globe Twister Domestique
# Indice spectral Valeur 
# MSI 0.57 
# SLI 0.72 
# IPI 0.67 
# Pourcentage de bleu 32.8 
# Caractéristique Valeur 
# CCT calculée (K) 4487 
# CCT du fabricant (K) 5000 
# Tension (V) 120 
# Puissance (W) 9.0 
# Efficacité lumineuse (Lum/W) 61.1 
#
# Image: '/app/system/img_1s/2533/medium_image1.jpg?1413486139'
# 

  273.00  0.0000E+000  
  273.50  0.0000E+000  
  274.00  0.0000E+000  
  274.50  0.0000E+000  
  275.00  0.0000E+000  
  275.50  0.0000E+000  
  276.00  0.0000E+000  
  276.50  0.0000E+000  
  277.00  0.0000E+000  
  277.50  0.0000E+000  
  278.00  0.0000E+000  
  278.50  0.0000E+000  
  279.00  0.0000E+000  
  279.50  0.0000E+000  
  280.00  0.0000E+000  
  280.50  0.0000E+000  
  281.00  0.0000E+000  
  281.50  0.0000E+000  
  282.00  0.0000E+000  
  282.50  0.0000E+000  
  283.00  0.0000E+000  
  283.50  0.0000E+000  
  284.00  0.0000E+000  
  284.50  0.0000E+000  
  285.00  0.0000E+000  
  285.50  0.0000E+000  
  286.00  0.0000E+000  
  286.50  0.0000E+000  
  287.00  0.0000E+000  
  287.50  0.0000E+000  
  288.00  0.0000E+000  
  288.50  0.0000E+000  
  289.00  0.0000E+000  
  289.50  0.0000E+000  
  290.00  0.0000E+000  
  290.50  0.0000E+000  
  291.00  0.0000E+000  
  291.50  0.0000E+000  
  292.00  0.0000E+000  
  292.50  0.0000E+000  
  293.00  0.0000E+000  
  293.50  0.0000E+000  
  294.00  0.0000E+000  
  294.50  0.0000E+000  
  295.00  0.0000E+000  
  295.50  0.0000E+000  
  296.00  0.0000E+000  
  296.50  0.0000E+000  
  297.00  0.0000E+000  
  297.50  0.0000E+000  
  298.00  0.0000E+000  
  298.50  0.0000E+000  
  299.00  0.0000E+000  
  299.50  0.0000E+000  
  300.00  4.1661E-006  
  300.50  4.6375E-006  
  301.00  7.5905E-006  
  301.50  8.8973E-006  
  302.00  0.0000E+000  
  302.50  3.1323E-006  
  303.00  1.7815E-006  
  303.50  1.1792E-005  
  304.00  6.2409E-006  
  304.50  7.6318E-007  
  305.00  4.8790E-006  
  305.50  0.0000E+000  
  306.00  0.0000E+000  
  306.50  0.0000E+000  
  307.00  0.0000E+000  
  307.50  0.0000E+000  
  308.00  0.0000E+000  
  308.50  0.0000E+000  
  309.00  0.0000E+000  
  309.50  0.0000E+000  
  310.00  0.0000E+000  
  310.50  0.0000E+000  
  311.00  0.0000E+000  
  311.50  0.0000E+000  
  312.00  0.0000E+000  
  312.50  0.0000E+000  
  313.00  0.0000E+000  
  313.50  0.0000E+000  
  314.00  0.0000E+000  
  314.50  0.0000E+000  
  315.00  0.0000E+000  
  315.50  0.0000E+000  
  316.00  0.0000E+000  
  316.50  0.0000E+000  
  317.00  5.2541E-006  
  317.50  2.7777E-005  
  318.00  1.6852E-005  
  318.50  2.7093E-007  
  319.00  0.0000E+000  
  319.50  0.0000E+000  
  320.00  0.0000E+000  
  320.50  0.0000E+000  
  321.00  0.0000E+000  
  321.50  0.0000E+000  
  322.00  0.0000E+000  
  322.50  0.0000E+000  
  323.00  0.0000E+000  
  323.50  1.7473E-005  
  324.00  4.7773E-006  
  324.50  0.0000E+000  
  325.00  0.0000E+000  
  325.50  0.0000E+000  
  326.00  0.0000E+000  
  326.50  0.0000E+000  
  327.00  1.1640E-005  
  327.50  2.1138E-005  
  328.00  1.5786E-005  
  328.50  6.3764E-006  
  329.00  0.0000E+000  
  329.50  0.0000E+000  
  330.00  0.0000E+000  
  330.50  2.1080E-006  
  331.00  2.5021E-005  
  331.50  5.9495E-005  
  332.00  8.5350E-005  
  332.50  7.8305E-005  
  333.00  5.8703E-005  
  333.50  4.5753E-005  
  334.00  4.9795E-005  
  334.50  6.7043E-005  
  335.00  5.9685E-005  
  335.50  5.2330E-005  
  336.00  4.8269E-005  
  336.50  1.7554E-005  
  337.00  3.4144E-007  
  337.50  0.0000E+000  
  338.00  0.0000E+000  
  338.50  0.0000E+000  
  339.00  0.0000E+000  
  339.50  0.0000E+000  
  340.00  0.0000E+000  
  340.50  0.0000E+000  
  341.00  0.0000E+000  
  341.50  0.0000E+000  
  342.00  0.0000E+000  
  342.50  0.0000E+000  
  343.00  0.0000E+000  
  343.50  0.0000E+000  
  344.00  8.8502E-007  
  344.50  8.6314E-006  
  345.00  1.6884E-005  
  345.50  3.3860E-005  
  346.00  3.9380E-005  
  346.50  3.3053E-005  
  347.00  1.9524E-005  
  347.50  1.9050E-005  
  348.00  1.7364E-005  
  348.50  3.7956E-005  
  349.00  3.9682E-005  
  349.50  3.4097E-005  
  350.00  3.7985E-005  
  350.50  2.5665E-005  
  351.00  1.3203E-005  
  351.50  4.9808E-006  
  352.00  0.0000E+000  
  352.50  0.0000E+000  
  353.00  0.0000E+000  
  353.50  0.0000E+000  
  354.00  3.5805E-005  
  354.50  4.3767E-005  
  355.00  3.1616E-005  
  355.50  3.3387E-005  
  356.00  2.4621E-005  
  356.50  7.1967E-006  
  357.00  1.2985E-005  
  357.50  1.0210E-005  
  358.00  2.1218E-005  
  358.50  2.3213E-005  
  359.00  3.4146E-006  
  359.50  0.0000E+000  
  360.00  0.0000E+000  
  360.50  0.0000E+000  
  361.00  0.0000E+000  
  361.50  0.0000E+000  
  362.00  0.0000E+000  
  362.50  0.0000E+000  
  363.00  8.1302E-006  
  363.50  9.8173E-005  
  364.00  2.5191E-004  
  364.50  3.7304E-004  
  365.00  4.1975E-004  
  365.50  3.7355E-004  
  366.00  2.5618E-004  
  366.50  1.5702E-004  
  367.00  8.6545E-005  
  367.50  3.6195E-005  
  368.00  4.7301E-006  
  368.50  0.0000E+000  
  369.00  0.0000E+000  
  369.50  0.0000E+000  
  370.00  1.4551E-006  
  370.50  1.3323E-005  
  371.00  1.8180E-005  
  371.50  0.0000E+000  
  372.00  0.0000E+000  
  372.50  0.0000E+000  
  373.00  5.3525E-006  
  373.50  2.1950E-005  
  374.00  3.2625E-005  
  374.50  3.5277E-005  
  375.00  3.1288E-005  
  375.50  4.6835E-006  
  376.00  0.0000E+000  
  376.50  0.0000E+000  
  377.00  0.0000E+000  
  377.50  0.0000E+000  
  378.00  0.0000E+000  
  378.50  0.0000E+000  
  379.00  0.0000E+000  
  379.50  0.0000E+000  
  380.00  4.2530E-006  
  380.50  2.6619E-005  
  381.00  5.3141E-005  
  381.50  4.9532E-005  
  382.00  1.6968E-005  
  382.50  0.0000E+000  
  383.00  7.4541E-006  
  383.50  1.9723E-005  
  384.00  2.9440E-005  
  384.50  7.4319E-006  
  385.00  0.0000E+000  
  385.50  0.0000E+000  
  386.00  0.0000E+000  
  386.50  2.2075E-005  
  387.00  4.9805E-005  
  387.50  3.0308E-005  
  388.00  1.3332E-007  
  388.50  5.1931E-006  
  389.00  2.0541E-005  
  389.50  4.8284E-005  
  390.00  5.8856E-005  
  390.50  8.6470E-005  
  391.00  8.6258E-005  
  391.50  5.3323E-005  
  392.00  1.6948E-005  
  392.50  0.0000E+000  
  393.00  0.0000E+000  
  393.50  0.0000E+000  
  394.00  0.0000E+000  
  394.50  0.0000E+000  
  395.00  0.0000E+000  
  395.50  1.0616E-005  
  396.00  1.8580E-005  
  396.50  3.3639E-005  
  397.00  4.9073E-005  
  397.50  3.1787E-005  
  398.00  3.6860E-005  
  398.50  3.0906E-005  
  399.00  3.2080E-005  
  399.50  5.2556E-005  
  400.00  5.7961E-005  
  400.50  5.4465E-005  
  401.00  5.5694E-005  
  401.50  5.9849E-005  
  402.00  4.6964E-005  
  402.50  6.0046E-005  
  403.00  1.7147E-004  
  403.50  4.0773E-004  
  404.00  6.8121E-004  
  404.50  8.0886E-004  
  405.00  7.3588E-004  
  405.50  5.1535E-004  
  406.00  2.9626E-004  
  406.50  1.6472E-004  
  407.00  1.0669E-004  
  407.50  6.5738E-005  
  408.00  5.2322E-005  
  408.50  4.5981E-005  
  409.00  5.2730E-005  
  409.50  8.7891E-005  
  410.00  9.9941E-005  
  410.50  9.0986E-005  
  411.00  9.1377E-005  
  411.50  9.1750E-005  
  412.00  9.8309E-005  
  412.50  9.8751E-005  
  413.00  9.4583E-005  
  413.50  8.3997E-005  
  414.00  7.5255E-005  
  414.50  6.6033E-005  
  415.00  6.5323E-005  
  415.50  9.5031E-005  
  416.00  1.0375E-004  
  416.50  1.1516E-004  
  417.00  1.1300E-004  
  417.50  1.0407E-004  
  418.00  1.1842E-004  
  418.50  1.3821E-004  
  419.00  1.7603E-004  
  419.50  1.9641E-004  
  420.00  1.9271E-004  
  420.50  1.8367E-004  
  421.00  1.7453E-004  
  421.50  1.6772E-004  
  422.00  1.6982E-004  
  422.50  1.6828E-004  
  423.00  1.7884E-004  
  423.50  2.0544E-004  
  424.00  1.9521E-004  
  424.50  1.9503E-004  
  425.00  2.0883E-004  
  425.50  2.2368E-004  
  426.00  2.5801E-004  
  426.50  2.8017E-004  
  427.00  2.9278E-004  
  427.50  3.1479E-004  
  428.00  3.1558E-004  
  428.50  2.9888E-004  
  429.00  2.9228E-004  
  429.50  2.9738E-004  
  430.00  3.1552E-004  
  430.50  3.2718E-004  
  431.00  2.8908E-004  
  431.50  3.0200E-004  
  432.00  3.3536E-004  
  432.50  3.8013E-004  
  433.00  4.3925E-004  
  433.50  5.2420E-004  
  434.00  8.7585E-004  
  434.50  1.8019E-003  
  435.00  3.0091E-003  
  435.50  3.8638E-003  
  436.00  3.7444E-003  
  436.50  2.8195E-003  
  437.00  1.7026E-003  
  437.50  9.3832E-004  
  438.00  6.1348E-004  
  438.50  4.9382E-004  
  439.00  4.4222E-004  
  439.50  4.4103E-004  
  440.00  4.5069E-004  
  440.50  4.8447E-004  
  441.00  4.9895E-004  
  441.50  4.9605E-004  
  442.00  4.9366E-004  
  442.50  4.8098E-004  
  443.00  4.8708E-004  
  443.50  4.9340E-004  
  444.00  5.0358E-004  
  444.50  5.1727E-004  
  445.00  5.2857E-004  
  445.50  5.3375E-004  
  446.00  5.2472E-004  
  446.50  5.2516E-004  
  447.00  5.5222E-004  
  447.50  5.7380E-004  
  448.00  5.6947E-004  
  448.50  5.2927E-004  
  449.00  5.0551E-004  
  449.50  5.0711E-004  
  450.00  5.3214E-004  
  450.50  5.5001E-004  
  451.00  5.5012E-004  
  451.50  5.6268E-004  
  452.00  5.8035E-004  
  452.50  5.9040E-004  
  453.00  6.0236E-004  
  453.50  5.6609E-004  
  454.00  5.3146E-004  
  454.50  4.8884E-004  
  455.00  4.8081E-004  
  455.50  4.9083E-004  
  456.00  5.1613E-004  
  456.50  5.2716E-004  
  457.00  4.9992E-004  
  457.50  4.6270E-004  
  458.00  4.4203E-004  
  458.50  4.3132E-004  
  459.00  4.5014E-004  
  459.50  4.6227E-004  
  460.00  4.7689E-004  
  460.50  4.8908E-004  
  461.00  4.8735E-004  
  461.50  4.7785E-004  
  462.00  4.4974E-004  
  462.50  4.3098E-004  
  463.00  4.1997E-004  
  463.50  4.2387E-004  
  464.00  4.4053E-004  
  464.50  4.4661E-004  
  465.00  4.3477E-004  
  465.50  4.2071E-004  
  466.00  4.0964E-004  
  466.50  3.9572E-004  
  467.00  3.6943E-004  
  467.50  3.5106E-004  
  468.00  3.6280E-004  
  468.50  3.8403E-004  
  469.00  4.1523E-004  
  469.50  4.1796E-004  
  470.00  4.1830E-004  
  470.50  4.1994E-004  
  471.00  4.1944E-004  
  471.50  4.1642E-004  
  472.00  3.9301E-004  
  472.50  3.5374E-004  
  473.00  3.2958E-004  
  473.50  3.4314E-004  
  474.00  3.8072E-004  
  474.50  3.9636E-004  
  475.00  3.9161E-004  
  475.50  3.9054E-004  
  476.00  3.8532E-004  
  476.50  3.8235E-004  
  477.00  3.6278E-004  
  477.50  3.3825E-004  
  478.00  3.4096E-004  
  478.50  3.5902E-004  
  479.00  3.8034E-004  
  479.50  4.1109E-004  
  480.00  4.2926E-004  
  480.50  4.4410E-004  
  481.00  4.3400E-004  
  481.50  4.2151E-004  
  482.00  4.1975E-004  
  482.50  4.4460E-004  
  483.00  4.9099E-004  
  483.50  5.4301E-004  
  484.00  5.9274E-004  
  484.50  6.4305E-004  
  485.00  7.0673E-004  
  485.50  7.7507E-004  
  486.00  8.4124E-004  
  486.50  8.7396E-004  
  487.00  8.9169E-004  
  487.50  8.7488E-004  
  488.00  8.3356E-004  
  488.50  7.8086E-004  
  489.00  7.3075E-004  
  489.50  6.9703E-004  
  490.00  6.8342E-004  
  490.50  6.6524E-004  
  491.00  6.5853E-004  
  491.50  6.3659E-004  
  492.00  5.9182E-004  
  492.50  5.5107E-004  
  493.00  5.1293E-004  
  493.50  4.8334E-004  
  494.00  4.7270E-004  
  494.50  4.5274E-004  
  495.00  4.5157E-004  
  495.50  4.3530E-004  
  496.00  4.2088E-004  
  496.50  4.0928E-004  
  497.00  3.9338E-004  
  497.50  3.8338E-004  
  498.00  3.7031E-004  
  498.50  3.5774E-004  
  499.00  3.4554E-004  
  499.50  3.1942E-004  
  500.00  2.9194E-004  
  500.50  2.6502E-004  
  501.00  2.5415E-004  
  501.50  2.4597E-004  
  502.00  2.4333E-004  
  502.50  2.4842E-004  
  503.00  2.5549E-004  
  503.50  2.6604E-004  
  504.00  2.6601E-004  
  504.50  2.5877E-004  
  505.00  2.4930E-004  
  505.50  2.4943E-004  
  506.00  2.5551E-004  
  506.50  2.6693E-004  
  507.00  2.7759E-004  
  507.50  2.7465E-004  
  508.00  2.5868E-004  
  508.50  2.4880E-004  
  509.00  2.3324E-004  
  509.50  2.3602E-004  
  510.00  2.3845E-004  
  510.50  2.4491E-004  
  511.00  2.5409E-004  
  511.50  2.5448E-004  
  512.00  2.6360E-004  
  512.50  2.6515E-004  
  513.00  2.6673E-004  
  513.50  2.6610E-004  
  514.00  2.7148E-004  
  514.50  2.7518E-004  
  515.00  2.8528E-004  
  515.50  2.8049E-004  
  516.00  2.8867E-004  
  516.50  2.8791E-004  
  517.00  2.8493E-004  
  517.50  2.7538E-004  
  518.00  2.5985E-004  
  518.50  2.4365E-004  
  519.00  2.2974E-004  
  519.50  2.2523E-004  
  520.00  2.3071E-004  
  520.50  2.4338E-004  
  521.00  2.3773E-004  
  521.50  2.2501E-004  
  522.00  2.0999E-004  
  522.50  2.1247E-004  
  523.00  2.1888E-004  
  523.50  2.2047E-004  
  524.00  2.1639E-004  
  524.50  2.1840E-004  
  525.00  2.2302E-004  
  525.50  2.1935E-004  
  526.00  2.0790E-004  
  526.50  2.1643E-004  
  527.00  2.2395E-004  
  527.50  2.3018E-004  
  528.00  2.0886E-004  
  528.50  1.7693E-004  
  529.00  1.6380E-004  
  529.50  1.6874E-004  
  530.00  1.8379E-004  
  530.50  1.8577E-004  
  531.00  1.8539E-004  
  531.50  2.0153E-004  
  532.00  2.2469E-004  
  532.50  2.4723E-004  
  533.00  2.4879E-004  
  533.50  2.4066E-004  
  534.00  2.4021E-004  
  534.50  2.4589E-004  
  535.00  2.5722E-004  
  535.50  2.8779E-004  
  536.00  3.2115E-004  
  536.50  3.9786E-004  
  537.00  4.8869E-004  
  537.50  5.9164E-004  
  538.00  6.9054E-004  
  538.50  8.1734E-004  
  539.00  1.0277E-003  
  539.50  1.3699E-003  
  540.00  1.8824E-003  
  540.50  2.5576E-003  
  541.00  3.2259E-003  
  541.50  3.6806E-003  
  542.00  3.7334E-003  
  542.50  3.5090E-003  
  543.00  3.2214E-003  
  543.50  3.0473E-003  
  544.00  3.1142E-003  
  544.50  3.5255E-003  
  545.00  4.3337E-003  
  545.50  5.1426E-003  
  546.00  5.2725E-003  
  546.50  4.6896E-003  
  547.00  3.6690E-003  
  547.50  2.8064E-003  
  548.00  2.2996E-003  
  548.50  1.9648E-003  
  549.00  1.7142E-003  
  549.50  1.4972E-003  
  550.00  1.3231E-003  
  550.50  1.1489E-003  
  551.00  9.8996E-004  
  551.50  8.5601E-004  
  552.00  7.4861E-004  
  552.50  6.5515E-004  
  553.00  5.5644E-004  
  553.50  4.7307E-004  
  554.00  4.0845E-004  
  554.50  3.5641E-004  
  555.00  3.1901E-004  
  555.50  2.8591E-004  
  556.00  2.5792E-004  
  556.50  2.3660E-004  
  557.00  2.2605E-004  
  557.50  2.0928E-004  
  558.00  1.8709E-004  
  558.50  1.5921E-004  
  559.00  1.4549E-004  
  559.50  1.3513E-004  
  560.00  1.3921E-004  
  560.50  1.3131E-004  
  561.00  1.1987E-004  
  561.50  1.1374E-004  
  562.00  1.0535E-004  
  562.50  8.8453E-005  
  563.00  7.5678E-005  
  563.50  6.9999E-005  
  564.00  9.8693E-005  
  564.50  1.2045E-004  
  565.00  1.2674E-004  
  565.50  1.1972E-004  
  566.00  1.0582E-004  
  566.50  8.7398E-005  
  567.00  6.6915E-005  
  567.50  5.1815E-005  
  568.00  3.6588E-005  
  568.50  3.6778E-005  
  569.00  4.0377E-005  
  569.50  5.1185E-005  
  570.00  5.4580E-005  
  570.50  5.4444E-005  
  571.00  7.1579E-005  
  571.50  7.1211E-005  
  572.00  6.1953E-005  
  572.50  3.7022E-005  
  573.00  3.5851E-005  
  573.50  4.0176E-005  
  574.00  6.2117E-005  
  574.50  7.6844E-005  
  575.00  1.2448E-004  
  575.50  2.4216E-004  
  576.00  4.4914E-004  
  576.50  6.3967E-004  
  577.00  7.2110E-004  
  577.50  6.7004E-004  
  578.00  6.4896E-004  
  578.50  7.0878E-004  
  579.00  7.6010E-004  
  579.50  7.2930E-004  
  580.00  6.4131E-004  
  580.50  5.6703E-004  
  581.00  5.5534E-004  
  581.50  5.8076E-004  
  582.00  6.5143E-004  
  582.50  7.0293E-004  
  583.00  7.4549E-004  
  583.50  7.6027E-004  
  584.00  7.6155E-004  
  584.50  7.4014E-004  
  585.00  7.1415E-004  
  585.50  7.1059E-004  
  586.00  7.5666E-004  
  586.50  8.5819E-004  
  587.00  9.4676E-004  
  587.50  9.2583E-004  
  588.00  7.9315E-004  
  588.50  6.2643E-004  
  589.00  5.1954E-004  
  589.50  4.6318E-004  
  590.00  4.5119E-004  
  590.50  4.6447E-004  
  591.00  5.1270E-004  
  591.50  5.9129E-004  
  592.00  6.8561E-004  
  592.50  7.7767E-004  
  593.00  8.3056E-004  
  593.50  7.7535E-004  
  594.00  6.4632E-004  
  594.50  4.7439E-004  
  595.00  3.5804E-004  
  595.50  3.1172E-004  
  596.00  3.0047E-004  
  596.50  3.0855E-004  
  597.00  3.1340E-004  
  597.50  3.5653E-004  
  598.00  4.1511E-004  
  598.50  4.8578E-004  
  599.00  5.4371E-004  
  599.50  5.5877E-004  
  600.00  5.3400E-004  
  600.50  4.5856E-004  
  601.00  3.6718E-004  
  601.50  3.1152E-004  
  602.00  2.7162E-004  
  602.50  2.5798E-004  
  603.00  2.1872E-004  
  603.50  2.1720E-004  
  604.00  2.1469E-004  
  604.50  2.2244E-004  
  605.00  2.2673E-004  
  605.50  2.4505E-004  
  606.00  2.8136E-004  
  606.50  3.2127E-004  
  607.00  3.6465E-004  
  607.50  4.4031E-004  
  608.00  5.5094E-004  
  608.50  7.6091E-004  
  609.00  1.1341E-003  
  609.50  1.9600E-003  
  610.00  3.3217E-003  
  610.50  5.0663E-003  
  611.00  6.3790E-003  
  611.50  6.6178E-003  
  612.00  5.6722E-003  
  612.50  4.3538E-003  
  613.00  3.3089E-003  
  613.50  2.6847E-003  
  614.00  2.3095E-003  
  614.50  2.0261E-003  
  615.00  1.7488E-003  
  615.50  1.4488E-003  
  616.00  1.1541E-003  
  616.50  9.3018E-004  
  617.00  7.8339E-004  
  617.50  6.8050E-004  
  618.00  5.9857E-004  
  618.50  5.3627E-004  
  619.00  5.2192E-004  
  619.50  5.4221E-004  
  620.00  5.7396E-004  
  620.50  6.0684E-004  
  621.00  6.1357E-004  
  621.50  6.2522E-004  
  622.00  6.1028E-004  
  622.50  6.0893E-004  
  623.00  6.3549E-004  
  623.50  6.7842E-004  
  624.00  7.1681E-004  
  624.50  7.3520E-004  
  625.00  7.2560E-004  
  625.50  7.1661E-004  
  626.00  7.1129E-004  
  626.50  7.1059E-004  
  627.00  7.0085E-004  
  627.50  6.6003E-004  
  628.00  6.2025E-004  
  628.50  5.8093E-004  
  629.00  5.7975E-004  
  629.50  6.3531E-004  
  630.00  7.5117E-004  
  630.50  8.7682E-004  
  631.00  9.0459E-004  
  631.50  8.0399E-004  
  632.00  5.9933E-004  
  632.50  3.9209E-004  
  633.00  2.6133E-004  
  633.50  1.9771E-004  
  634.00  1.8104E-004  
  634.50  1.6891E-004  
  635.00  1.7332E-004  
  635.50  1.9290E-004  
  636.00  2.0385E-004  
  636.50  1.8752E-004  
  637.00  1.6370E-004  
  637.50  1.4367E-004  
  638.00  1.4074E-004  
  638.50  1.3832E-004  
  639.00  1.4080E-004  
  639.50  1.5038E-004  
  640.00  1.3123E-004  
  640.50  1.1558E-004  
  641.00  8.0239E-005  
  641.50  8.6916E-005  
  642.00  9.7424E-005  
  642.50  9.6567E-005  
  643.00  7.8409E-005  
  643.50  6.5827E-005  
  644.00  9.1422E-005  
  644.50  1.1197E-004  
  645.00  1.3407E-004  
  645.50  1.3356E-004  
  646.00  1.1581E-004  
  646.50  9.0301E-005  
  647.00  6.6393E-005  
  647.50  7.6651E-005  
  648.00  8.9710E-005  
  648.50  1.1093E-004  
  649.00  1.5084E-004  
  649.50  2.2466E-004  
  650.00  3.1755E-004  
  650.50  3.5184E-004  
  651.00  3.1685E-004  
  651.50  2.4045E-004  
  652.00  1.9319E-004  
  652.50  1.8281E-004  
  653.00  1.6576E-004  
  653.50  1.6433E-004  
  654.00  1.3359E-004  
  654.50  1.2860E-004  
  655.00  1.0361E-004  
  655.50  9.8400E-005  
  656.00  1.1192E-004  
  656.50  1.2226E-004  
  657.00  1.4306E-004  
  657.50  1.2759E-004  
  658.00  1.0944E-004  
  658.50  9.0556E-005  
  659.00  1.0293E-004  
  659.50  1.2494E-004  
  660.00  1.2257E-004  
  660.50  1.0782E-004  
  661.00  9.8342E-005  
  661.50  1.3473E-004  
  662.00  1.7703E-004  
  662.50  2.2751E-004  
  663.00  2.0379E-004  
  663.50  1.4378E-004  
  664.00  9.7668E-005  
  664.50  1.0962E-004  
  665.00  1.2231E-004  
  665.50  1.0227E-004  
  666.00  6.3311E-005  
  666.50  6.3689E-005  
  667.00  3.5833E-005  
  667.50  3.8007E-005  
  668.00  3.5831E-005  
  668.50  5.5383E-005  
  669.00  6.0366E-005  
  669.50  5.1621E-005  
  670.00  6.6914E-005  
  670.50  5.7579E-005  
  671.00  1.8900E-005  
  671.50  0.0000E+000  
  672.00  0.0000E+000  
  672.50  0.0000E+000  
  673.00  2.4267E-005  
  673.50  4.2367E-005  
  674.00  5.6320E-005  
  674.50  7.2922E-005  
  675.00  6.4258E-005  
  675.50  4.2253E-005  
  676.00  3.5157E-005  
  676.50  4.4555E-005  
  677.00  3.8667E-005  
  677.50  8.1121E-006  
  678.00  7.8146E-007  
  678.50  1.1268E-005  
  679.00  1.9097E-005  
  679.50  4.5237E-005  
  680.00  8.7578E-005  
  680.50  1.3824E-004  
  681.00  1.1591E-004  
