
# From lspdd.org
# 
# Name: HPS Philips Helios Lampadaire
# Indice spectral Valeur 
# MSI 0.12 
# SLI 0.24 
# IPI 0.51 
# Pourcentage de bleu 8.3 
# Caractéristique Valeur 
# CCT calculée (K) 2079 
# CCT du fabricant (K) 2010 
# Tension (V) ND 
# Puissance (W) 100.0 
# Efficacité lumineuse (Lum/W) 85.0 
#
# Image: '/app/system/img_1s/2536/medium_image1.jpg?1413486153'
# 

  273.00  0.0000E+000  
  273.50  0.0000E+000  
  274.00  0.0000E+000  
  274.50  0.0000E+000  
  275.00  0.0000E+000  
  275.50  0.0000E+000  
  276.00  0.0000E+000  
  276.50  0.0000E+000  
  277.00  0.0000E+000  
  277.50  0.0000E+000  
  278.00  0.0000E+000  
  278.50  0.0000E+000  
  279.00  0.0000E+000  
  279.50  0.0000E+000  
  280.00  0.0000E+000  
  280.50  0.0000E+000  
  281.00  0.0000E+000  
  281.50  0.0000E+000  
  282.00  0.0000E+000  
  282.50  0.0000E+000  
  283.00  0.0000E+000  
  283.50  0.0000E+000  
  284.00  0.0000E+000  
  284.50  0.0000E+000  
  285.00  0.0000E+000  
  285.50  0.0000E+000  
  286.00  0.0000E+000  
  286.50  0.0000E+000  
  287.00  0.0000E+000  
  287.50  0.0000E+000  
  288.00  0.0000E+000  
  288.50  0.0000E+000  
  289.00  0.0000E+000  
  289.50  0.0000E+000  
  290.00  0.0000E+000  
  290.50  0.0000E+000  
  291.00  0.0000E+000  
  291.50  0.0000E+000  
  292.00  0.0000E+000  
  292.50  0.0000E+000  
  293.00  0.0000E+000  
  293.50  0.0000E+000  
  294.00  0.0000E+000  
  294.50  0.0000E+000  
  295.00  0.0000E+000  
  295.50  0.0000E+000  
  296.00  0.0000E+000  
  296.50  0.0000E+000  
  297.00  0.0000E+000  
  297.50  0.0000E+000  
  298.00  0.0000E+000  
  298.50  0.0000E+000  
  299.00  0.0000E+000  
  299.50  0.0000E+000  
  300.00  0.0000E+000  
  300.50  1.1379E-006  
  301.00  1.1651E-005  
  301.50  1.5813E-005  
  302.00  1.2083E-005  
  302.50  8.0303E-006  
  303.00  4.4411E-006  
  303.50  4.8252E-006  
  304.00  5.1401E-006  
  304.50  3.5739E-006  
  305.00  5.4825E-006  
  305.50  9.2567E-006  
  306.00  9.6789E-006  
  306.50  1.4530E-005  
  307.00  1.4224E-005  
  307.50  6.1839E-006  
  308.00  3.9218E-006  
  308.50  3.0866E-006  
  309.00  1.0569E-006  
  309.50  6.1038E-006  
  310.00  6.9733E-006  
  310.50  2.7773E-006  
  311.00  4.0034E-006  
  311.50  2.7915E-006  
  312.00  3.6752E-006  
  312.50  3.5088E-006  
  313.00  0.0000E+000  
  313.50  0.0000E+000  
  314.00  0.0000E+000  
  314.50  0.0000E+000  
  315.00  0.0000E+000  
  315.50  0.0000E+000  
  316.00  0.0000E+000  
  316.50  0.0000E+000  
  317.00  0.0000E+000  
  317.50  0.0000E+000  
  318.00  0.0000E+000  
  318.50  0.0000E+000  
  319.00  1.1221E-007  
  319.50  3.3440E-006  
  320.00  6.6348E-006  
  320.50  2.8884E-006  
  321.00  4.5198E-006  
  321.50  4.9537E-006  
  322.00  1.0341E-005  
  322.50  1.6292E-005  
  323.00  1.5043E-005  
  323.50  1.5608E-005  
  324.00  8.0655E-006  
  324.50  6.7852E-006  
  325.00  9.6445E-006  
  325.50  8.1584E-006  
  326.00  9.1820E-006  
  326.50  2.2449E-006  
  327.00  0.0000E+000  
  327.50  3.6166E-007  
  328.00  4.4144E-006  
  328.50  1.6554E-005  
  329.00  2.2698E-005  
  329.50  2.3449E-005  
  330.00  2.0906E-005  
  330.50  1.5935E-005  
  331.00  1.2131E-005  
  331.50  1.2995E-005  
  332.00  1.5051E-005  
  332.50  1.7458E-005  
  333.00  2.1105E-005  
  333.50  2.0257E-005  
  334.00  1.4803E-005  
  334.50  1.2517E-005  
  335.00  6.9309E-006  
  335.50  3.3418E-006  
  336.00  8.4728E-006  
  336.50  7.0747E-006  
  337.00  9.5008E-006  
  337.50  1.6284E-005  
  338.00  1.8811E-005  
  338.50  2.1204E-005  
  339.00  1.9508E-005  
  339.50  1.2173E-005  
  340.00  9.4413E-006  
  340.50  9.8352E-006  
  341.00  7.0651E-006  
  341.50  2.3542E-006  
  342.00  1.1843E-007  
  342.50  2.4997E-006  
  343.00  3.8176E-006  
  343.50  5.3480E-006  
  344.00  5.4134E-006  
  344.50  8.3905E-006  
  345.00  1.1628E-005  
  345.50  1.3351E-005  
  346.00  1.3351E-005  
  346.50  1.3770E-005  
  347.00  1.5569E-005  
  347.50  1.8169E-005  
  348.00  1.4215E-005  
  348.50  8.5704E-006  
  349.00  3.3061E-006  
  349.50  7.3310E-007  
  350.00  1.7149E-006  
  350.50  2.0308E-006  
  351.00  3.4490E-006  
  351.50  4.8236E-006  
  352.00  7.4435E-006  
  352.50  1.1033E-005  
  353.00  9.5864E-006  
  353.50  9.5523E-006  
  354.00  1.1310E-005  
  354.50  1.9245E-005  
  355.00  2.8333E-005  
  355.50  3.3817E-005  
  356.00  3.2008E-005  
  356.50  2.7720E-005  
  357.00  2.8199E-005  
  357.50  3.1449E-005  
  358.00  3.8183E-005  
  358.50  3.4993E-005  
  359.00  2.2347E-005  
  359.50  7.6684E-006  
  360.00  0.0000E+000  
  360.50  3.5407E-007  
  361.00  3.8603E-006  
  361.50  6.5183E-006  
  362.00  4.5643E-006  
  362.50  5.2560E-006  
  363.00  1.5800E-005  
  363.50  2.5063E-005  
  364.00  3.3638E-005  
  364.50  3.2165E-005  
  365.00  2.6957E-005  
  365.50  2.5305E-005  
  366.00  2.4431E-005  
  366.50  2.7161E-005  
  367.00  2.8412E-005  
  367.50  3.3287E-005  
  368.00  3.5336E-005  
  368.50  3.7415E-005  
  369.00  3.3912E-005  
  369.50  2.6023E-005  
  370.00  1.9083E-005  
  370.50  9.7857E-006  
  371.00  5.7690E-006  
  371.50  3.7324E-006  
  372.00  6.9414E-006  
  372.50  1.3569E-005  
  373.00  2.2055E-005  
  373.50  2.5378E-005  
  374.00  2.3910E-005  
  374.50  2.4774E-005  
  375.00  2.5440E-005  
  375.50  2.8059E-005  
  376.00  2.5297E-005  
  376.50  2.2069E-005  
  377.00  2.0616E-005  
  377.50  2.4124E-005  
  378.00  2.9618E-005  
  378.50  3.1049E-005  
  379.00  2.6759E-005  
  379.50  2.1856E-005  
  380.00  1.9070E-005  
  380.50  1.9299E-005  
  381.00  2.3264E-005  
  381.50  2.6167E-005  
  382.00  2.5238E-005  
  382.50  2.6515E-005  
  383.00  2.4054E-005  
  383.50  2.2346E-005  
  384.00  1.9298E-005  
  384.50  1.4056E-005  
  385.00  1.1038E-005  
  385.50  1.5533E-005  
  386.00  2.2666E-005  
  386.50  2.9573E-005  
  387.00  2.7702E-005  
  387.50  2.1682E-005  
  388.00  2.0743E-005  
  388.50  2.2879E-005  
  389.00  2.6682E-005  
  389.50  3.0951E-005  
  390.00  3.1893E-005  
  390.50  3.0474E-005  
  391.00  3.2177E-005  
  391.50  3.2482E-005  
  392.00  3.0151E-005  
  392.50  3.2530E-005  
  393.00  3.2123E-005  
  393.50  3.2573E-005  
  394.00  3.5249E-005  
  394.50  3.3146E-005  
  395.00  3.4944E-005  
  395.50  3.4889E-005  
  396.00  3.6423E-005  
  396.50  3.9856E-005  
  397.00  4.3231E-005  
  397.50  4.4492E-005  
  398.00  4.2878E-005  
  398.50  4.0777E-005  
  399.00  3.6439E-005  
  399.50  3.6456E-005  
  400.00  3.8997E-005  
  400.50  4.1121E-005  
  401.00  4.3633E-005  
  401.50  4.1697E-005  
  402.00  3.8168E-005  
  402.50  3.5580E-005  
  403.00  3.2736E-005  
  403.50  3.8195E-005  
  404.00  4.0783E-005  
  404.50  4.3621E-005  
  405.00  4.3922E-005  
  405.50  3.9950E-005  
  406.00  3.9388E-005  
  406.50  4.2122E-005  
  407.00  4.2972E-005  
  407.50  4.2598E-005  
  408.00  3.8476E-005  
  408.50  3.8186E-005  
  409.00  3.9443E-005  
  409.50  4.7430E-005  
  410.00  5.3947E-005  
  410.50  5.1549E-005  
  411.00  5.0506E-005  
  411.50  5.1693E-005  
  412.00  5.2173E-005  
  412.50  5.2181E-005  
  413.00  4.5578E-005  
  413.50  3.7105E-005  
  414.00  3.5731E-005  
  414.50  3.4269E-005  
  415.00  3.9972E-005  
  415.50  4.5385E-005  
  416.00  4.7458E-005  
  416.50  5.0784E-005  
  417.00  5.0772E-005  
  417.50  4.7267E-005  
  418.00  4.7470E-005  
  418.50  4.8382E-005  
  419.00  5.2244E-005  
  419.50  5.5863E-005  
  420.00  5.7942E-005  
  420.50  5.9018E-005  
  421.00  6.1643E-005  
  421.50  5.8134E-005  
  422.00  5.4562E-005  
  422.50  5.1986E-005  
  423.00  5.7005E-005  
  423.50  6.4124E-005  
  424.00  6.9790E-005  
  424.50  6.8791E-005  
  425.00  6.5771E-005  
  425.50  6.4882E-005  
  426.00  6.5412E-005  
  426.50  6.9498E-005  
  427.00  7.3545E-005  
  427.50  7.4217E-005  
  428.00  7.4269E-005  
  428.50  6.8961E-005  
  429.00  6.4157E-005  
  429.50  6.3276E-005  
  430.00  6.4643E-005  
  430.50  6.9621E-005  
  431.00  7.2370E-005  
  431.50  7.4583E-005  
  432.00  7.6055E-005  
  432.50  7.8887E-005  
  433.00  8.1364E-005  
  433.50  7.9467E-005  
  434.00  7.7911E-005  
  434.50  8.2685E-005  
  435.00  8.8065E-005  
  435.50  9.5193E-005  
  436.00  9.7571E-005  
  436.50  9.4967E-005  
  437.00  9.2130E-005  
  437.50  9.2170E-005  
  438.00  9.5089E-005  
  438.50  9.8239E-005  
  439.00  1.0008E-004  
  439.50  9.5772E-005  
  440.00  9.0184E-005  
  440.50  8.8758E-005  
  441.00  8.5417E-005  
  441.50  8.1915E-005  
  442.00  7.5439E-005  
  442.50  6.9329E-005  
  443.00  6.8467E-005  
  443.50  6.4891E-005  
  444.00  6.2774E-005  
  444.50  6.3260E-005  
  445.00  6.5201E-005  
  445.50  7.6356E-005  
  446.00  8.5467E-005  
  446.50  9.4907E-005  
  447.00  9.9899E-005  
  447.50  1.0710E-004  
  448.00  1.2268E-004  
  448.50  1.4557E-004  
  449.00  1.7154E-004  
  449.50  1.8584E-004  
  450.00  1.8511E-004  
  450.50  1.7006E-004  
  451.00  1.5022E-004  
  451.50  1.3112E-004  
  452.00  1.1610E-004  
  452.50  1.0519E-004  
  453.00  1.0133E-004  
  453.50  1.0533E-004  
  454.00  1.0932E-004  
  454.50  1.0646E-004  
  455.00  9.7525E-005  
  455.50  8.3861E-005  
  456.00  7.0757E-005  
  456.50  6.2225E-005  
  457.00  5.5387E-005  
  457.50  5.9062E-005  
  458.00  6.1540E-005  
  458.50  6.1212E-005  
  459.00  5.9970E-005  
  459.50  5.8966E-005  
  460.00  6.4928E-005  
  460.50  6.6597E-005  
  461.00  7.2376E-005  
  461.50  8.1515E-005  
  462.00  9.2564E-005  
  462.50  1.0168E-004  
  463.00  1.0364E-004  
  463.50  1.0652E-004  
  464.00  1.1753E-004  
  464.50  1.4610E-004  
  465.00  1.9254E-004  
  465.50  2.6302E-004  
  466.00  3.3917E-004  
  466.50  3.8707E-004  
  467.00  3.9371E-004  
  467.50  3.4844E-004  
  468.00  2.8247E-004  
  468.50  2.2150E-004  
  469.00  1.7731E-004  
  469.50  1.4894E-004  
  470.00  1.3091E-004  
  470.50  1.1726E-004  
  471.00  1.0975E-004  
  471.50  1.0363E-004  
  472.00  9.6528E-005  
  472.50  9.1892E-005  
  473.00  8.7035E-005  
  473.50  9.5501E-005  
  474.00  1.1245E-004  
  474.50  1.2990E-004  
  475.00  1.3519E-004  
  475.50  1.1883E-004  
  476.00  9.1778E-005  
  476.50  6.6812E-005  
  477.00  5.3245E-005  
  477.50  4.5958E-005  
  478.00  4.4037E-005  
  478.50  4.3649E-005  
  479.00  4.3385E-005  
  479.50  4.1141E-005  
  480.00  3.7435E-005  
  480.50  3.3633E-005  
  481.00  3.2251E-005  
  481.50  3.4896E-005  
  482.00  3.8479E-005  
  482.50  4.3818E-005  
  483.00  4.5578E-005  
  483.50  4.3351E-005  
  484.00  3.9002E-005  
  484.50  3.5269E-005  
  485.00  3.5244E-005  
  485.50  3.6127E-005  
  486.00  3.9036E-005  
  486.50  4.1821E-005  
  487.00  4.3048E-005  
  487.50  4.3522E-005  
  488.00  4.3599E-005  
  488.50  4.4003E-005  
  489.00  4.6877E-005  
  489.50  5.2907E-005  
  490.00  6.3679E-005  
  490.50  7.0280E-005  
  491.00  7.1218E-005  
  491.50  6.7625E-005  
  492.00  6.3142E-005  
  492.50  6.5319E-005  
  493.00  6.8730E-005  
  493.50  7.5842E-005  
  494.00  8.7824E-005  
  494.50  1.0726E-004  
  495.00  1.4252E-004  
  495.50  2.0698E-004  
  496.00  3.2317E-004  
  496.50  5.3627E-004  
  497.00  8.2078E-004  
  497.50  1.0918E-003  
  498.00  1.2333E-003  
  498.50  1.1354E-003  
  499.00  8.9265E-004  
  499.50  6.0825E-004  
  500.00  3.8344E-004  
  500.50  2.4759E-004  
  501.00  1.7168E-004  
  501.50  1.3294E-004  
  502.00  1.1124E-004  
  502.50  9.6433E-005  
  503.00  8.5470E-005  
  503.50  7.5609E-005  
  504.00  6.8304E-005  
  504.50  6.4407E-005  
  505.00  6.1020E-005  
  505.50  5.8198E-005  
  506.00  5.6672E-005  
  506.50  5.4140E-005  
  507.00  5.3179E-005  
  507.50  5.2307E-005  
  508.00  5.1169E-005  
  508.50  5.2735E-005  
  509.00  5.6082E-005  
  509.50  5.9075E-005  
  510.00  5.9950E-005  
  510.50  5.6671E-005  
  511.00  5.4599E-005  
  511.50  5.4470E-005  
  512.00  5.4764E-005  
  512.50  5.7583E-005  
  513.00  7.1287E-005  
  513.50  1.1814E-004  
  514.00  2.0679E-004  
  514.50  3.0434E-004  
  515.00  3.5274E-004  
  515.50  3.1993E-004  
  516.00  2.3258E-004  
  516.50  1.4150E-004  
  517.00  8.7640E-005  
  517.50  6.6882E-005  
  518.00  6.1296E-005  
  518.50  5.9704E-005  
  519.00  5.8010E-005  
  519.50  5.7351E-005  
  520.00  5.6666E-005  
  520.50  5.4430E-005  
  521.00  5.3234E-005  
  521.50  5.2672E-005  
  522.00  5.3649E-005  
  522.50  5.3047E-005  
  523.00  5.0733E-005  
  523.50  4.9436E-005  
  524.00  5.0819E-005  
  524.50  5.3317E-005  
  525.00  5.6288E-005  
  525.50  5.7919E-005  
  526.00  5.8783E-005  
  526.50  6.0016E-005  
  527.00  6.0268E-005  
  527.50  5.9472E-005  
  528.00  5.7387E-005  
  528.50  5.5936E-005  
  529.00  5.7776E-005  
  529.50  6.1122E-005  
  530.00  6.3823E-005  
  530.50  6.6010E-005  
  531.00  6.5393E-005  
  531.50  6.4549E-005  
  532.00  6.3851E-005  
  532.50  6.2641E-005  
  533.00  6.3285E-005  
  533.50  6.4528E-005  
  534.00  6.7984E-005  
  534.50  6.9190E-005  
  535.00  6.9978E-005  
  535.50  6.8247E-005  
  536.00  6.8330E-005  
  536.50  6.9489E-005  
  537.00  7.1878E-005  
  537.50  7.4151E-005  
  538.00  7.5886E-005  
  538.50  7.8156E-005  
  539.00  7.7830E-005  
  539.50  7.7604E-005  
  540.00  8.0381E-005  
  540.50  8.1999E-005  
  541.00  8.3323E-005  
  541.50  8.2630E-005  
  542.00  8.5157E-005  
  542.50  9.1044E-005  
  543.00  9.6630E-005  
  543.50  1.0036E-004  
  544.00  1.0247E-004  
  544.50  1.0821E-004  
  545.00  1.1868E-004  
  545.50  1.3343E-004  
  546.00  1.4599E-004  
  546.50  1.5720E-004  
  547.00  1.6823E-004  
  547.50  1.8547E-004  
  548.00  2.0949E-004  
  548.50  2.4234E-004  
  549.00  2.8005E-004  
  549.50  3.1803E-004  
  550.00  3.5462E-004  
  550.50  3.8527E-004  
  551.00  4.0996E-004  
  551.50  4.2843E-004  
  552.00  4.3712E-004  
  552.50  4.4161E-004  
  553.00  4.3876E-004  
  553.50  4.3097E-004  
  554.00  4.2276E-004  
  554.50  4.1669E-004  
  555.00  4.1103E-004  
  555.50  4.1100E-004  
  556.00  4.1618E-004  
  556.50  4.2261E-004  
  557.00  4.3356E-004  
  557.50  4.4078E-004  
  558.00  4.5128E-004  
  558.50  4.6027E-004  
  559.00  4.6812E-004  
  559.50  4.8111E-004  
  560.00  4.9483E-004  
  560.50  5.0981E-004  
  561.00  5.2252E-004  
  561.50  5.3471E-004  
  562.00  5.5309E-004  
  562.50  5.7246E-004  
  563.00  5.9832E-004  
  563.50  6.3601E-004  
  564.00  6.8508E-004  
  564.50  7.6117E-004  
  565.00  8.8037E-004  
  565.50  1.0826E-003  
  566.00  1.3973E-003  
  566.50  1.9228E-003  
  567.00  2.7471E-003  
  567.50  3.9052E-003  
  568.00  5.0482E-003  
  568.50  5.5488E-003  
  569.00  5.1968E-003  
  569.50  4.1089E-003  
  570.00  2.9198E-003  
  570.50  2.0457E-003  
  571.00  1.5629E-003  
  571.50  1.3423E-003  
  572.00  1.2513E-003  
  572.50  1.2160E-003  
  573.00  1.2146E-003  
  573.50  1.2338E-003  
  574.00  1.2706E-003  
  574.50  1.3217E-003  
  575.00  1.3803E-003  
  575.50  1.4539E-003  
  576.00  1.5338E-003  
  576.50  1.6190E-003  
  577.00  1.7086E-003  
  577.50  1.8064E-003  
  578.00  1.9157E-003  
  578.50  2.0362E-003  
  579.00  2.1651E-003  
  579.50  2.3095E-003  
  580.00  2.4732E-003  
  580.50  2.6461E-003  
  581.00  2.8243E-003  
  581.50  2.9955E-003  
  582.00  3.1605E-003  
  582.50  3.3208E-003  
  583.00  3.4544E-003  
  583.50  3.5471E-003  
  584.00  3.5508E-003  
  584.50  3.4203E-003  
  585.00  3.1298E-003  
  585.50  2.6510E-003  
  586.00  2.0530E-003  
  586.50  1.4275E-003  
  587.00  8.8858E-004  
  587.50  5.1075E-004  
  588.00  2.9725E-004  
  588.50  1.9427E-004  
  589.00  1.6305E-004  
  589.50  1.6666E-004  
  590.00  2.2049E-004  
  590.50  3.4459E-004  
  591.00  5.9083E-004  
  591.50  9.8084E-004  
  592.00  1.4913E-003  
  592.50  2.0556E-003  
  593.00  2.5909E-003  
  593.50  3.0315E-003  
  594.00  3.3598E-003  
  594.50  3.5738E-003  
  595.00  3.6808E-003  
  595.50  3.7114E-003  
  596.00  3.6777E-003  
  596.50  3.6115E-003  
  597.00  3.5280E-003  
  597.50  3.4286E-003  
  598.00  3.3149E-003  
  598.50  3.1987E-003  
  599.00  3.0862E-003  
  599.50  2.9872E-003  
  600.00  2.8815E-003  
  600.50  2.7702E-003  
  601.00  2.6514E-003  
  601.50  2.5316E-003  
  602.00  2.4231E-003  
  602.50  2.3285E-003  
  603.00  2.2412E-003  
  603.50  2.1631E-003  
  604.00  2.0855E-003  
  604.50  2.0150E-003  
  605.00  1.9372E-003  
  605.50  1.8543E-003  
  606.00  1.7756E-003  
  606.50  1.7039E-003  
  607.00  1.6391E-003  
  607.50  1.5797E-003  
  608.00  1.5250E-003  
  608.50  1.4752E-003  
  609.00  1.4288E-003  
  609.50  1.3819E-003  
  610.00  1.3410E-003  
  610.50  1.3019E-003  
  611.00  1.2618E-003  
  611.50  1.2247E-003  
  612.00  1.1893E-003  
  612.50  1.1643E-003  
  613.00  1.1420E-003  
  613.50  1.1557E-003  
  614.00  1.2616E-003  
  614.50  1.5355E-003  
  615.00  1.9013E-003  
  615.50  2.1601E-003  
  616.00  2.1218E-003  
  616.50  1.8049E-003  
  617.00  1.3971E-003  
  617.50  1.0914E-003  
  618.00  9.3824E-004  
  618.50  8.7395E-004  
  619.00  8.4006E-004  
  619.50  8.1497E-004  
  620.00  7.8844E-004  
  620.50  7.6932E-004  
  621.00  7.5082E-004  
  621.50  7.3894E-004  
  622.00  7.2318E-004  
  622.50  7.0382E-004  
  623.00  6.8544E-004  
  623.50  6.7079E-004  
  624.00  6.6542E-004  
  624.50  6.6149E-004  
  625.00  6.5504E-004  
  625.50  6.4104E-004  
  626.00  6.2948E-004  
  626.50  6.1861E-004  
  627.00  6.1080E-004  
  627.50  6.0106E-004  
  628.00  5.8717E-004  
  628.50  5.7063E-004  
  629.00  5.5811E-004  
  629.50  5.5422E-004  
  630.00  5.5532E-004  
  630.50  5.4950E-004  
  631.00  5.3799E-004  
  631.50  5.2656E-004  
  632.00  5.1512E-004  
  632.50  5.0701E-004  
  633.00  4.9755E-004  
  633.50  4.8787E-004  
  634.00  4.7889E-004  
  634.50  4.7198E-004  
  635.00  4.7027E-004  
  635.50  4.6553E-004  
  636.00  4.5784E-004  
  636.50  4.5205E-004  
  637.00  4.4654E-004  
  637.50  4.4194E-004  
  638.00  4.3348E-004  
  638.50  4.3105E-004  
  639.00  4.2675E-004  
  639.50  4.2408E-004  
  640.00  4.1821E-004  
  640.50  4.1657E-004  
  641.00  4.1202E-004  
  641.50  4.0472E-004  
  642.00  3.9485E-004  
  642.50  3.8877E-004  
  643.00  3.8182E-004  
  643.50  3.7435E-004  
  644.00  3.6604E-004  
  644.50  3.5583E-004  
  645.00  3.5105E-004  
  645.50  3.4741E-004  
  646.00  3.5016E-004  
  646.50  3.5494E-004  
  647.00  3.5607E-004  
  647.50  3.5002E-004  
  648.00  3.4038E-004  
  648.50  3.3624E-004  
  649.00  3.3680E-004  
  649.50  3.3513E-004  
  650.00  3.2588E-004  
  650.50  3.1691E-004  
  651.00  3.1053E-004  
  651.50  3.0711E-004  
  652.00  3.0643E-004  
  652.50  3.0748E-004  
  653.00  3.0979E-004  
  653.50  3.1032E-004  
  654.00  3.1197E-004  
  654.50  3.1530E-004  
  655.00  3.2068E-004  
  655.50  3.2373E-004  
  656.00  3.2072E-004  
  656.50  3.0861E-004  
  657.00  3.0154E-004  
  657.50  2.9719E-004  
  658.00  2.9771E-004  
  658.50  2.8964E-004  
  659.00  2.8113E-004  
  659.50  2.6801E-004  
  660.00  2.6261E-004  
  660.50  2.5906E-004  
  661.00  2.6310E-004  
  661.50  2.6129E-004  
  662.00  2.5663E-004  
  662.50  2.5209E-004  
  663.00  2.4848E-004  
  663.50  2.4628E-004  
  664.00  2.4238E-004  
  664.50  2.4084E-004  
  665.00  2.4170E-004  
  665.50  2.4183E-004  
  666.00  2.4432E-004  
  666.50  2.5141E-004  
  667.00  2.5997E-004  
  667.50  2.6493E-004  
  668.00  2.6382E-004  
  668.50  2.6496E-004  
  669.00  2.6832E-004  
  669.50  2.7443E-004  
  670.00  2.7989E-004  
  670.50  2.8135E-004  
  671.00  2.8462E-004  
  671.50  2.7972E-004  
  672.00  2.6974E-004  
  672.50  2.6110E-004  
  673.00  2.6016E-004  
  673.50  2.6310E-004  
  674.00  2.5804E-004  
  674.50  2.5549E-004  
  675.00  2.5456E-004  
  675.50  2.5346E-004  
  676.00  2.4379E-004  
  676.50  2.3110E-004  
  677.00  2.2668E-004  
  677.50  2.2506E-004  
  678.00  2.2239E-004  
  678.50  2.1352E-004  
  679.00  2.0491E-004  
  679.50  1.9241E-004  
  680.00  1.8170E-004  
  680.50  1.7772E-004  
  681.00  1.8216E-004  
