
# From lspdd.org
# 
# Name: Halo Sylvania A19 Domestique
# Indice spectral Valeur 
# MSI 0.33 
# SLI 0.54 
# IPI 0.91 
# Pourcentage de bleu 14.5 
# Caractéristique Valeur 
# CCT calculée (K) 2805 
# CCT du fabricant (K) ND 
# Tension (V) 120 
# Puissance (W) 60.0 
# Efficacité lumineuse (Lum/W) 16.0 
#
# Image: '/app/system/img_1s/2539/medium_image1.jpg?1413486166'
# 

  273.00  0.0000E+000  
  273.50  0.0000E+000  
  274.00  0.0000E+000  
  274.50  0.0000E+000  
  275.00  0.0000E+000  
  275.50  0.0000E+000  
  276.00  0.0000E+000  
  276.50  0.0000E+000  
  277.00  0.0000E+000  
  277.50  0.0000E+000  
  278.00  0.0000E+000  
  278.50  0.0000E+000  
  279.00  0.0000E+000  
  279.50  0.0000E+000  
  280.00  0.0000E+000  
  280.50  0.0000E+000  
  281.00  0.0000E+000  
  281.50  0.0000E+000  
  282.00  0.0000E+000  
  282.50  0.0000E+000  
  283.00  0.0000E+000  
  283.50  0.0000E+000  
  284.00  0.0000E+000  
  284.50  0.0000E+000  
  285.00  0.0000E+000  
  285.50  0.0000E+000  
  286.00  0.0000E+000  
  286.50  0.0000E+000  
  287.00  0.0000E+000  
  287.50  0.0000E+000  
  288.00  0.0000E+000  
  288.50  0.0000E+000  
  289.00  0.0000E+000  
  289.50  0.0000E+000  
  290.00  0.0000E+000  
  290.50  0.0000E+000  
  291.00  0.0000E+000  
  291.50  0.0000E+000  
  292.00  0.0000E+000  
  292.50  0.0000E+000  
  293.00  0.0000E+000  
  293.50  0.0000E+000  
  294.00  0.0000E+000  
  294.50  0.0000E+000  
  295.00  0.0000E+000  
  295.50  0.0000E+000  
  296.00  0.0000E+000  
  296.50  0.0000E+000  
  297.00  0.0000E+000  
  297.50  0.0000E+000  
  298.00  0.0000E+000  
  298.50  0.0000E+000  
  299.00  0.0000E+000  
  299.50  0.0000E+000  
  300.00  3.1513E-005  
  300.50  1.3026E-004  
  301.00  2.1454E-004  
  301.50  2.5817E-004  
  302.00  2.2738E-004  
  302.50  1.8094E-004  
  303.00  1.4887E-004  
  303.50  1.3006E-004  
  304.00  9.5260E-005  
  304.50  3.1332E-005  
  305.00  0.0000E+000  
  305.50  0.0000E+000  
  306.00  0.0000E+000  
  306.50  0.0000E+000  
  307.00  1.9197E-005  
  307.50  5.4808E-005  
  308.00  8.4338E-005  
  308.50  9.2570E-005  
  309.00  9.7202E-005  
  309.50  1.2865E-004  
  310.00  1.6712E-004  
  310.50  1.9878E-004  
  311.00  1.9578E-004  
  311.50  2.2378E-004  
  312.00  2.2149E-004  
  312.50  1.8943E-004  
  313.00  2.1123E-004  
  313.50  1.6536E-004  
  314.00  1.3905E-004  
  314.50  1.8250E-004  
  315.00  1.6663E-004  
  315.50  1.6773E-004  
  316.00  1.5195E-004  
  316.50  1.1054E-004  
  317.00  7.0792E-005  
  317.50  9.1076E-005  
  318.00  1.4350E-004  
  318.50  1.9796E-004  
  319.00  2.7848E-004  
  319.50  2.7416E-004  
  320.00  2.4191E-004  
  320.50  1.6743E-004  
  321.00  1.1390E-004  
  321.50  3.3546E-005  
  322.00  1.2386E-005  
  322.50  8.1053E-005  
  323.00  1.7087E-004  
  323.50  2.9882E-004  
  324.00  3.1360E-004  
  324.50  2.4519E-004  
  325.00  1.9286E-004  
  325.50  1.3483E-004  
  326.00  1.6018E-004  
  326.50  1.8975E-004  
  327.00  1.7710E-004  
  327.50  1.7450E-004  
  328.00  1.4571E-004  
  328.50  1.7087E-004  
  329.00  2.3876E-004  
  329.50  2.9662E-004  
  330.00  3.4771E-004  
  330.50  3.6783E-004  
  331.00  3.5903E-004  
  331.50  3.3389E-004  
  332.00  3.0852E-004  
  332.50  2.3868E-004  
  333.00  1.5870E-004  
  333.50  1.9911E-004  
  334.00  2.4954E-004  
  334.50  3.3421E-004  
  335.00  4.0751E-004  
  335.50  4.0175E-004  
  336.00  3.6643E-004  
  336.50  3.4374E-004  
  337.00  3.2505E-004  
  337.50  3.3019E-004  
  338.00  3.8255E-004  
  338.50  4.1257E-004  
  339.00  4.1199E-004  
  339.50  4.1303E-004  
  340.00  4.2370E-004  
  340.50  4.5747E-004  
  341.00  4.5251E-004  
  341.50  4.6719E-004  
  342.00  4.6608E-004  
  342.50  4.7238E-004  
  343.00  4.9659E-004  
  343.50  5.2176E-004  
  344.00  5.5709E-004  
  344.50  5.9151E-004  
  345.00  6.2578E-004  
  345.50  6.4260E-004  
  346.00  6.4381E-004  
  346.50  7.1745E-004  
  347.00  7.8532E-004  
  347.50  8.3335E-004  
  348.00  8.0138E-004  
  348.50  7.5987E-004  
  349.00  7.1191E-004  
  349.50  7.3262E-004  
  350.00  8.3410E-004  
  350.50  8.6070E-004  
  351.00  9.3427E-004  
  351.50  9.2597E-004  
  352.00  9.0742E-004  
  352.50  9.4287E-004  
  353.00  9.3215E-004  
  353.50  9.1772E-004  
  354.00  9.1080E-004  
  354.50  8.6944E-004  
  355.00  8.7943E-004  
  355.50  9.2375E-004  
  356.00  9.7845E-004  
  356.50  1.0168E-003  
  357.00  1.0518E-003  
  357.50  1.0740E-003  
  358.00  1.1250E-003  
  358.50  1.1880E-003  
  359.00  1.2089E-003  
  359.50  1.1961E-003  
  360.00  1.1599E-003  
  360.50  1.2026E-003  
  361.00  1.2785E-003  
  361.50  1.3459E-003  
  362.00  1.3686E-003  
  362.50  1.3447E-003  
  363.00  1.2764E-003  
  363.50  1.3202E-003  
  364.00  1.3639E-003  
  364.50  1.4419E-003  
  365.00  1.5240E-003  
  365.50  1.4701E-003  
  366.00  1.4107E-003  
  366.50  1.3881E-003  
  367.00  1.4116E-003  
  367.50  1.4628E-003  
  368.00  1.4954E-003  
  368.50  1.5184E-003  
  369.00  1.5601E-003  
  369.50  1.6378E-003  
  370.00  1.7492E-003  
  370.50  1.7620E-003  
  371.00  1.7673E-003  
  371.50  1.7955E-003  
  372.00  1.7869E-003  
  372.50  1.8288E-003  
  373.00  1.8416E-003  
  373.50  1.8456E-003  
  374.00  1.8745E-003  
  374.50  1.8939E-003  
  375.00  1.9369E-003  
  375.50  1.9495E-003  
  376.00  2.0082E-003  
  376.50  2.0220E-003  
  377.00  2.0058E-003  
  377.50  1.9713E-003  
  378.00  1.9769E-003  
  378.50  2.0596E-003  
  379.00  2.0967E-003  
  379.50  2.1332E-003  
  380.00  2.1546E-003  
  380.50  2.1833E-003  
  381.00  2.2345E-003  
  381.50  2.2545E-003  
  382.00  2.2430E-003  
  382.50  2.2710E-003  
  383.00  2.2935E-003  
  383.50  2.2864E-003  
  384.00  2.3010E-003  
  384.50  2.3371E-003  
  385.00  2.3737E-003  
  385.50  2.3518E-003  
  386.00  2.3373E-003  
  386.50  2.3747E-003  
  387.00  2.4562E-003  
  387.50  2.5496E-003  
  388.00  2.6150E-003  
  388.50  2.6038E-003  
  389.00  2.6152E-003  
  389.50  2.6256E-003  
  390.00  2.6672E-003  
  390.50  2.7466E-003  
  391.00  2.8188E-003  
  391.50  2.8295E-003  
  392.00  2.8047E-003  
  392.50  2.7382E-003  
  393.00  2.7194E-003  
  393.50  2.7552E-003  
  394.00  2.7864E-003  
  394.50  2.8725E-003  
  395.00  2.9503E-003  
  395.50  3.0386E-003  
  396.00  3.1257E-003  
  396.50  3.1554E-003  
  397.00  3.1480E-003  
  397.50  3.1060E-003  
  398.00  3.1153E-003  
  398.50  3.1566E-003  
  399.00  3.2252E-003  
  399.50  3.2946E-003  
  400.00  3.2711E-003  
  400.50  3.2715E-003  
  401.00  3.3135E-003  
  401.50  3.3570E-003  
  402.00  3.4417E-003  
  402.50  3.5055E-003  
  403.00  3.5206E-003  
  403.50  3.5378E-003  
  404.00  3.6182E-003  
  404.50  3.7064E-003  
  405.00  3.8162E-003  
  405.50  3.8609E-003  
  406.00  3.8654E-003  
  406.50  3.8466E-003  
  407.00  3.9167E-003  
  407.50  3.9494E-003  
  408.00  3.9539E-003  
  408.50  3.9157E-003  
  409.00  3.8690E-003  
  409.50  3.8954E-003  
  410.00  3.9790E-003  
  410.50  4.0804E-003  
  411.00  4.1655E-003  
  411.50  4.2393E-003  
  412.00  4.2893E-003  
  412.50  4.2872E-003  
  413.00  4.3012E-003  
  413.50  4.3118E-003  
  414.00  4.3604E-003  
  414.50  4.3913E-003  
  415.00  4.4309E-003  
  415.50  4.4781E-003  
  416.00  4.5568E-003  
  416.50  4.6159E-003  
  417.00  4.6771E-003  
  417.50  4.7364E-003  
  418.00  4.7542E-003  
  418.50  4.7393E-003  
  419.00  4.7080E-003  
  419.50  4.6949E-003  
  420.00  4.6964E-003  
  420.50  4.7713E-003  
  421.00  4.8380E-003  
  421.50  4.9162E-003  
  422.00  4.9759E-003  
  422.50  4.9999E-003  
  423.00  5.0564E-003  
  423.50  5.0756E-003  
  424.00  5.1169E-003  
  424.50  5.1251E-003  
  425.00  5.1484E-003  
  425.50  5.2071E-003  
  426.00  5.2329E-003  
  426.50  5.2636E-003  
  427.00  5.3068E-003  
  427.50  5.3581E-003  
  428.00  5.3969E-003  
  428.50  5.4632E-003  
  429.00  5.4645E-003  
  429.50  5.4741E-003  
  430.00  5.4804E-003  
  430.50  5.5180E-003  
  431.00  5.6080E-003  
  431.50  5.6873E-003  
  432.00  5.8117E-003  
  432.50  5.8792E-003  
  433.00  5.9267E-003  
  433.50  5.9297E-003  
  434.00  5.9539E-003  
  434.50  6.1018E-003  
  435.00  6.2819E-003  
  435.50  6.4431E-003  
  436.00  6.4667E-003  
  436.50  6.4430E-003  
  437.00  6.4177E-003  
  437.50  6.3720E-003  
  438.00  6.3769E-003  
  438.50  6.3245E-003  
  439.00  6.3711E-003  
  439.50  6.4030E-003  
  440.00  6.4470E-003  
  440.50  6.5334E-003  
  441.00  6.6035E-003  
  441.50  6.6825E-003  
  442.00  6.8183E-003  
  442.50  6.8899E-003  
  443.00  6.9492E-003  
  443.50  7.0138E-003  
  444.00  7.0173E-003  
  444.50  7.0418E-003  
  445.00  7.0956E-003  
  445.50  7.1216E-003  
  446.00  7.2446E-003  
  446.50  7.3360E-003  
  447.00  7.3517E-003  
  447.50  7.3700E-003  
  448.00  7.4056E-003  
  448.50  7.4542E-003  
  449.00  7.5802E-003  
  449.50  7.6379E-003  
  450.00  7.6827E-003  
  450.50  7.7058E-003  
  451.00  7.7452E-003  
  451.50  7.8229E-003  
  452.00  7.9308E-003  
  452.50  7.9554E-003  
  453.00  7.9459E-003  
  453.50  7.8829E-003  
  454.00  7.8957E-003  
  454.50  7.9809E-003  
  455.00  8.1136E-003  
  455.50  8.2165E-003  
  456.00  8.1958E-003  
  456.50  8.1864E-003  
  457.00  8.2281E-003  
  457.50  8.3493E-003  
  458.00  8.4822E-003  
  458.50  8.5510E-003  
  459.00  8.5850E-003  
  459.50  8.5894E-003  
  460.00  8.6578E-003  
  460.50  8.7049E-003  
  461.00  8.7694E-003  
  461.50  8.8611E-003  
  462.00  8.9644E-003  
  462.50  9.1199E-003  
  463.00  9.1900E-003  
  463.50  9.2024E-003  
  464.00  9.1960E-003  
  464.50  9.2143E-003  
  465.00  9.3048E-003  
  465.50  9.4381E-003  
  466.00  9.5667E-003  
  466.50  9.6279E-003  
  467.00  9.6715E-003  
  467.50  9.7298E-003  
  468.00  9.7904E-003  
  468.50  9.9000E-003  
  469.00  9.9098E-003  
  469.50  9.9334E-003  
  470.00  9.9939E-003  
  470.50  1.0041E-002  
  471.00  1.0156E-002  
  471.50  1.0187E-002  
  472.00  1.0216E-002  
  472.50  1.0228E-002  
  473.00  1.0292E-002  
  473.50  1.0374E-002  
  474.00  1.0457E-002  
  474.50  1.0480E-002  
  475.00  1.0477E-002  
  475.50  1.0522E-002  
  476.00  1.0610E-002  
  476.50  1.0701E-002  
  477.00  1.0777E-002  
  477.50  1.0811E-002  
  478.00  1.0837E-002  
  478.50  1.0892E-002  
  479.00  1.0988E-002  
  479.50  1.1093E-002  
  480.00  1.1211E-002  
  480.50  1.1301E-002  
  481.00  1.1378E-002  
  481.50  1.1437E-002  
  482.00  1.1486E-002  
  482.50  1.1537E-002  
  483.00  1.1621E-002  
  483.50  1.1672E-002  
  484.00  1.1728E-002  
  484.50  1.1782E-002  
  485.00  1.1843E-002  
  485.50  1.1908E-002  
  486.00  1.1956E-002  
  486.50  1.1995E-002  
  487.00  1.2084E-002  
  487.50  1.2142E-002  
  488.00  1.2257E-002  
  488.50  1.2326E-002  
  489.00  1.2418E-002  
  489.50  1.2503E-002  
  490.00  1.2543E-002  
  490.50  1.2595E-002  
  491.00  1.2645E-002  
  491.50  1.2746E-002  
  492.00  1.2867E-002  
  492.50  1.2961E-002  
  493.00  1.3027E-002  
  493.50  1.3092E-002  
  494.00  1.3165E-002  
  494.50  1.3237E-002  
  495.00  1.3274E-002  
  495.50  1.3343E-002  
  496.00  1.3426E-002  
  496.50  1.3504E-002  
  497.00  1.3583E-002  
  497.50  1.3670E-002  
  498.00  1.3750E-002  
  498.50  1.3839E-002  
  499.00  1.3918E-002  
  499.50  1.4019E-002  
  500.00  1.4140E-002  
  500.50  1.4209E-002  
  501.00  1.4282E-002  
  501.50  1.4330E-002  
  502.00  1.4443E-002  
  502.50  1.4557E-002  
  503.00  1.4661E-002  
  503.50  1.4745E-002  
  504.00  1.4825E-002  
  504.50  1.4920E-002  
  505.00  1.5037E-002  
  505.50  1.5143E-002  
  506.00  1.5237E-002  
  506.50  1.5351E-002  
  507.00  1.5467E-002  
  507.50  1.5577E-002  
  508.00  1.5675E-002  
  508.50  1.5773E-002  
  509.00  1.5878E-002  
  509.50  1.5965E-002  
  510.00  1.6073E-002  
  510.50  1.6185E-002  
  511.00  1.6304E-002  
  511.50  1.6417E-002  
  512.00  1.6558E-002  
  512.50  1.6682E-002  
  513.00  1.6830E-002  
  513.50  1.6951E-002  
  514.00  1.7042E-002  
  514.50  1.7152E-002  
  515.00  1.7240E-002  
  515.50  1.7314E-002  
  516.00  1.7418E-002  
  516.50  1.7565E-002  
  517.00  1.7722E-002  
  517.50  1.7885E-002  
  518.00  1.7991E-002  
  518.50  1.8127E-002  
  519.00  1.8263E-002  
  519.50  1.8381E-002  
  520.00  1.8459E-002  
  520.50  1.8493E-002  
  521.00  1.8585E-002  
  521.50  1.8722E-002  
  522.00  1.8932E-002  
  522.50  1.9129E-002  
  523.00  1.9293E-002  
  523.50  1.9403E-002  
  524.00  1.9475E-002  
  524.50  1.9571E-002  
  525.00  1.9672E-002  
  525.50  1.9822E-002  
  526.00  1.9948E-002  
  526.50  2.0080E-002  
  527.00  2.0191E-002  
  527.50  2.0344E-002  
  528.00  2.0437E-002  
  528.50  2.0546E-002  
  529.00  2.0627E-002  
  529.50  2.0770E-002  
  530.00  2.0955E-002  
  530.50  2.1059E-002  
  531.00  2.1177E-002  
  531.50  2.1227E-002  
  532.00  2.1370E-002  
  532.50  2.1619E-002  
  533.00  2.1847E-002  
  533.50  2.2019E-002  
  534.00  2.2075E-002  
  534.50  2.2097E-002  
  535.00  2.2179E-002  
  535.50  2.2307E-002  
  536.00  2.2460E-002  
  536.50  2.2579E-002  
  537.00  2.2678E-002  
  537.50  2.2755E-002  
  538.00  2.2858E-002  
  538.50  2.3016E-002  
  539.00  2.3163E-002  
  539.50  2.3334E-002  
  540.00  2.3463E-002  
  540.50  2.3593E-002  
  541.00  2.3728E-002  
  541.50  2.3887E-002  
  542.00  2.4029E-002  
  542.50  2.4158E-002  
  543.00  2.4300E-002  
  543.50  2.4462E-002  
  544.00  2.4610E-002  
  544.50  2.4755E-002  
  545.00  2.4894E-002  
  545.50  2.5071E-002  
  546.00  2.5247E-002  
  546.50  2.5351E-002  
  547.00  2.5378E-002  
  547.50  2.5380E-002  
  548.00  2.5453E-002  
  548.50  2.5604E-002  
  549.00  2.5788E-002  
  549.50  2.5929E-002  
  550.00  2.6023E-002  
  550.50  2.6173E-002  
  551.00  2.6336E-002  
  551.50  2.6491E-002  
  552.00  2.6654E-002  
  552.50  2.6786E-002  
  553.00  2.6904E-002  
  553.50  2.6954E-002  
  554.00  2.6975E-002  
  554.50  2.7068E-002  
  555.00  2.7179E-002  
  555.50  2.7349E-002  
  556.00  2.7495E-002  
  556.50  2.7660E-002  
  557.00  2.7814E-002  
  557.50  2.7963E-002  
  558.00  2.8025E-002  
  558.50  2.8151E-002  
  559.00  2.8304E-002  
  559.50  2.8508E-002  
  560.00  2.8676E-002  
  560.50  2.8771E-002  
  561.00  2.8888E-002  
  561.50  2.8983E-002  
  562.00  2.9081E-002  
  562.50  2.9207E-002  
  563.00  2.9295E-002  
  563.50  2.9432E-002  
  564.00  2.9455E-002  
  564.50  2.9488E-002  
  565.00  2.9568E-002  
  565.50  2.9656E-002  
  566.00  2.9797E-002  
  566.50  2.9929E-002  
  567.00  3.0026E-002  
  567.50  3.0147E-002  
  568.00  3.0201E-002  
  568.50  3.0349E-002  
  569.00  3.0479E-002  
  569.50  3.0646E-002  
  570.00  3.0819E-002  
  570.50  3.0958E-002  
  571.00  3.1017E-002  
  571.50  3.1005E-002  
  572.00  3.1019E-002  
  572.50  3.1147E-002  
  573.00  3.1306E-002  
  573.50  3.1376E-002  
  574.00  3.1464E-002  
  574.50  3.1503E-002  
  575.00  3.1644E-002  
  575.50  3.1745E-002  
  576.00  3.1850E-002  
  576.50  3.1942E-002  
  577.00  3.2134E-002  
  577.50  3.2328E-002  
  578.00  3.2473E-002  
  578.50  3.2518E-002  
  579.00  3.2541E-002  
  579.50  3.2610E-002  
  580.00  3.2674E-002  
  580.50  3.2744E-002  
  581.00  3.2788E-002  
  581.50  3.2831E-002  
  582.00  3.2823E-002  
  582.50  3.2900E-002  
  583.00  3.3041E-002  
  583.50  3.3254E-002  
  584.00  3.3435E-002  
  584.50  3.3518E-002  
  585.00  3.3574E-002  
  585.50  3.3593E-002  
  586.00  3.3725E-002  
  586.50  3.3894E-002  
  587.00  3.4048E-002  
  587.50  3.4123E-002  
  588.00  3.4213E-002  
  588.50  3.4315E-002  
  589.00  3.4420E-002  
  589.50  3.4497E-002  
  590.00  3.4563E-002  
  590.50  3.4702E-002  
  591.00  3.4827E-002  
  591.50  3.4918E-002  
  592.00  3.4955E-002  
  592.50  3.4965E-002  
  593.00  3.5001E-002  
  593.50  3.5097E-002  
  594.00  3.5276E-002  
  594.50  3.5399E-002  
  595.00  3.5470E-002  
  595.50  3.5470E-002  
  596.00  3.5544E-002  
  596.50  3.5684E-002  
  597.00  3.5772E-002  
  597.50  3.5887E-002  
  598.00  3.5911E-002  
  598.50  3.5983E-002  
  599.00  3.6046E-002  
  599.50  3.6161E-002  
  600.00  3.6275E-002  
  600.50  3.6390E-002  
  601.00  3.6515E-002  
  601.50  3.6580E-002  
  602.00  3.6646E-002  
  602.50  3.6717E-002  
  603.00  3.6777E-002  
  603.50  3.6796E-002  
  604.00  3.6765E-002  
  604.50  3.6829E-002  
  605.00  3.6955E-002  
  605.50  3.7075E-002  
  606.00  3.7077E-002  
  606.50  3.7064E-002  
  607.00  3.7047E-002  
  607.50  3.7148E-002  
  608.00  3.7259E-002  
  608.50  3.7364E-002  
  609.00  3.7393E-002  
  609.50  3.7405E-002  
  610.00  3.7435E-002  
  610.50  3.7539E-002  
  611.00  3.7673E-002  
  611.50  3.7820E-002  
  612.00  3.7961E-002  
  612.50  3.8039E-002  
  613.00  3.8096E-002  
  613.50  3.8058E-002  
  614.00  3.8095E-002  
  614.50  3.8133E-002  
  615.00  3.8196E-002  
  615.50  3.8200E-002  
  616.00  3.8165E-002  
  616.50  3.8177E-002  
  617.00  3.8180E-002  
  617.50  3.8235E-002  
  618.00  3.8264E-002  
  618.50  3.8375E-002  
  619.00  3.8462E-002  
  619.50  3.8514E-002  
  620.00  3.8596E-002  
  620.50  3.8710E-002  
  621.00  3.8825E-002  
  621.50  3.8887E-002  
  622.00  3.8955E-002  
  622.50  3.8993E-002  
  623.00  3.9020E-002  
  623.50  3.9073E-002  
  624.00  3.9208E-002  
  624.50  3.9318E-002  
  625.00  3.9423E-002  
  625.50  3.9548E-002  
  626.00  3.9609E-002  
  626.50  3.9639E-002  
  627.00  3.9544E-002  
  627.50  3.9573E-002  
  628.00  3.9630E-002  
  628.50  3.9710E-002  
  629.00  3.9780E-002  
  629.50  3.9772E-002  
  630.00  3.9870E-002  
  630.50  3.9917E-002  
  631.00  4.0053E-002  
  631.50  4.0114E-002  
  632.00  4.0164E-002  
  632.50  4.0153E-002  
  633.00  4.0110E-002  
  633.50  4.0042E-002  
  634.00  4.0016E-002  
  634.50  4.0101E-002  
  635.00  4.0254E-002  
  635.50  4.0453E-002  
  636.00  4.0534E-002  
  636.50  4.0543E-002  
  637.00  4.0571E-002  
  637.50  4.0581E-002  
  638.00  4.0659E-002  
  638.50  4.0661E-002  
  639.00  4.0645E-002  
  639.50  4.0591E-002  
  640.00  4.0566E-002  
  640.50  4.0654E-002  
  641.00  4.0818E-002  
  641.50  4.0976E-002  
  642.00  4.1076E-002  
  642.50  4.1099E-002  
  643.00  4.1113E-002  
  643.50  4.1116E-002  
  644.00  4.1241E-002  
  644.50  4.1385E-002  
  645.00  4.1506E-002  
  645.50  4.1514E-002  
  646.00  4.1475E-002  
  646.50  4.1482E-002  
  647.00  4.1619E-002  
  647.50  4.1720E-002  
  648.00  4.1715E-002  
  648.50  4.1696E-002  
  649.00  4.1717E-002  
  649.50  4.1809E-002  
  650.00  4.1810E-002  
  650.50  4.1792E-002  
  651.00  4.1859E-002  
  651.50  4.1929E-002  
  652.00  4.1975E-002  
  652.50  4.2028E-002  
  653.00  4.2097E-002  
  653.50  4.2089E-002  
  654.00  4.2031E-002  
  654.50  4.2037E-002  
  655.00  4.2191E-002  
  655.50  4.2334E-002  
  656.00  4.2316E-002  
  656.50  4.2231E-002  
  657.00  4.2131E-002  
  657.50  4.2204E-002  
  658.00  4.2398E-002  
  658.50  4.2606E-002  
  659.00  4.2652E-002  
  659.50  4.2678E-002  
  660.00  4.2710E-002  
  660.50  4.2743E-002  
  661.00  4.2657E-002  
  661.50  4.2699E-002  
  662.00  4.2781E-002  
  662.50  4.2909E-002  
  663.00  4.2896E-002  
  663.50  4.2893E-002  
  664.00  4.2888E-002  
  664.50  4.2844E-002  
  665.00  4.2792E-002  
  665.50  4.2822E-002  
  666.00  4.2874E-002  
  666.50  4.3046E-002  
  667.00  4.3023E-002  
  667.50  4.3019E-002  
  668.00  4.2978E-002  
  668.50  4.3070E-002  
  669.00  4.3128E-002  
  669.50  4.3143E-002  
  670.00  4.3104E-002  
  670.50  4.3148E-002  
  671.00  4.3227E-002  
  671.50  4.3300E-002  
  672.00  4.3203E-002  
  672.50  4.3075E-002  
  673.00  4.2993E-002  
  673.50  4.3091E-002  
  674.00  4.3218E-002  
  674.50  4.3398E-002  
  675.00  4.3426E-002  
  675.50  4.3503E-002  
  676.00  4.3508E-002  
  676.50  4.3600E-002  
  677.00  4.3584E-002  
  677.50  4.3650E-002  
  678.00  4.3712E-002  
  678.50  4.3791E-002  
  679.00  4.3848E-002  
  679.50  4.3909E-002  
  680.00  4.3958E-002  
  680.50  4.4016E-002  
  681.00  4.4038E-002  
