
# From lspdd.org
# 
# Name: DEL Standard PAR30 Domestique
# Indice spectral Valeur 
# MSI 0.42 
# SLI 0.58 
# IPI 0.69 
# Pourcentage de bleu 24.8 
# Caractéristique Valeur 
# CCT calculée (K) 3410 
# CCT du fabricant (K) 3000 
# Tension (V) 120 
# Puissance (W) 9.0 
# Efficacité lumineuse (Lum/W) 57.8 
#
# Image: '/app/system/img_2s/2540/medium_image2.JPG?1413486170'
# Image: '/app/system/img_1s/2540/medium_image1.JPG?1413486174'
# 

  273.00  0.0000E+000  
  273.50  0.0000E+000  
  274.00  0.0000E+000  
  274.50  0.0000E+000  
  275.00  0.0000E+000  
  275.50  0.0000E+000  
  276.00  0.0000E+000  
  276.50  0.0000E+000  
  277.00  0.0000E+000  
  277.50  0.0000E+000  
  278.00  0.0000E+000  
  278.50  0.0000E+000  
  279.00  0.0000E+000  
  279.50  0.0000E+000  
  280.00  0.0000E+000  
  280.50  0.0000E+000  
  281.00  0.0000E+000  
  281.50  0.0000E+000  
  282.00  0.0000E+000  
  282.50  0.0000E+000  
  283.00  0.0000E+000  
  283.50  0.0000E+000  
  284.00  0.0000E+000  
  284.50  0.0000E+000  
  285.00  0.0000E+000  
  285.50  0.0000E+000  
  286.00  0.0000E+000  
  286.50  0.0000E+000  
  287.00  0.0000E+000  
  287.50  0.0000E+000  
  288.00  0.0000E+000  
  288.50  0.0000E+000  
  289.00  0.0000E+000  
  289.50  0.0000E+000  
  290.00  0.0000E+000  
  290.50  0.0000E+000  
  291.00  0.0000E+000  
  291.50  0.0000E+000  
  292.00  0.0000E+000  
  292.50  0.0000E+000  
  293.00  0.0000E+000  
  293.50  0.0000E+000  
  294.00  0.0000E+000  
  294.50  0.0000E+000  
  295.00  0.0000E+000  
  295.50  0.0000E+000  
  296.00  0.0000E+000  
  296.50  0.0000E+000  
  297.00  0.0000E+000  
  297.50  0.0000E+000  
  298.00  0.0000E+000  
  298.50  0.0000E+000  
  299.00  0.0000E+000  
  299.50  0.0000E+000  
  300.00  0.0000E+000  
  300.50  0.0000E+000  
  301.00  0.0000E+000  
  301.50  0.0000E+000  
  302.00  0.0000E+000  
  302.50  0.0000E+000  
  303.00  0.0000E+000  
  303.50  0.0000E+000  
  304.00  0.0000E+000  
  304.50  0.0000E+000  
  305.00  0.0000E+000  
  305.50  0.0000E+000  
  306.00  0.0000E+000  
  306.50  0.0000E+000  
  307.00  0.0000E+000  
  307.50  0.0000E+000  
  308.00  0.0000E+000  
  308.50  0.0000E+000  
  309.00  0.0000E+000  
  309.50  0.0000E+000  
  310.00  0.0000E+000  
  310.50  0.0000E+000  
  311.00  0.0000E+000  
  311.50  0.0000E+000  
  312.00  0.0000E+000  
  312.50  0.0000E+000  
  313.00  0.0000E+000  
  313.50  0.0000E+000  
  314.00  0.0000E+000  
  314.50  0.0000E+000  
  315.00  0.0000E+000  
  315.50  0.0000E+000  
  316.00  0.0000E+000  
  316.50  0.0000E+000  
  317.00  0.0000E+000  
  317.50  0.0000E+000  
  318.00  0.0000E+000  
  318.50  0.0000E+000  
  319.00  0.0000E+000  
  319.50  0.0000E+000  
  320.00  0.0000E+000  
  320.50  0.0000E+000  
  321.00  0.0000E+000  
  321.50  0.0000E+000  
  322.00  0.0000E+000  
  322.50  0.0000E+000  
  323.00  0.0000E+000  
  323.50  0.0000E+000  
  324.00  0.0000E+000  
  324.50  0.0000E+000  
  325.00  0.0000E+000  
  325.50  0.0000E+000  
  326.00  0.0000E+000  
  326.50  0.0000E+000  
  327.00  0.0000E+000  
  327.50  0.0000E+000  
  328.00  0.0000E+000  
  328.50  0.0000E+000  
  329.00  0.0000E+000  
  329.50  0.0000E+000  
  330.00  0.0000E+000  
  330.50  0.0000E+000  
  331.00  0.0000E+000  
  331.50  0.0000E+000  
  332.00  0.0000E+000  
  332.50  0.0000E+000  
  333.00  0.0000E+000  
  333.50  0.0000E+000  
  334.00  0.0000E+000  
  334.50  0.0000E+000  
  335.00  0.0000E+000  
  335.50  0.0000E+000  
  336.00  0.0000E+000  
  336.50  0.0000E+000  
  337.00  0.0000E+000  
  337.50  0.0000E+000  
  338.00  0.0000E+000  
  338.50  0.0000E+000  
  339.00  0.0000E+000  
  339.50  0.0000E+000  
  340.00  0.0000E+000  
  340.50  0.0000E+000  
  341.00  0.0000E+000  
  341.50  0.0000E+000  
  342.00  0.0000E+000  
  342.50  0.0000E+000  
  343.00  0.0000E+000  
  343.50  0.0000E+000  
  344.00  0.0000E+000  
  344.50  0.0000E+000  
  345.00  0.0000E+000  
  345.50  0.0000E+000  
  346.00  0.0000E+000  
  346.50  0.0000E+000  
  347.00  0.0000E+000  
  347.50  0.0000E+000  
  348.00  0.0000E+000  
  348.50  0.0000E+000  
  349.00  0.0000E+000  
  349.50  0.0000E+000  
  350.00  0.0000E+000  
  350.50  0.0000E+000  
  351.00  0.0000E+000  
  351.50  0.0000E+000  
  352.00  0.0000E+000  
  352.50  0.0000E+000  
  353.00  0.0000E+000  
  353.50  0.0000E+000  
  354.00  0.0000E+000  
  354.50  0.0000E+000  
  355.00  0.0000E+000  
  355.50  0.0000E+000  
  356.00  0.0000E+000  
  356.50  0.0000E+000  
  357.00  0.0000E+000  
  357.50  0.0000E+000  
  358.00  0.0000E+000  
  358.50  0.0000E+000  
  359.00  0.0000E+000  
  359.50  0.0000E+000  
  360.00  0.0000E+000  
  360.50  0.0000E+000  
  361.00  1.7781E-006  
  361.50  0.0000E+000  
  362.00  0.0000E+000  
  362.50  0.0000E+000  
  363.00  2.4841E-005  
  363.50  7.3212E-005  
  364.00  7.1475E-005  
  364.50  1.8959E-005  
  365.00  0.0000E+000  
  365.50  0.0000E+000  
  366.00  0.0000E+000  
  366.50  0.0000E+000  
  367.00  0.0000E+000  
  367.50  0.0000E+000  
  368.00  0.0000E+000  
  368.50  0.0000E+000  
  369.00  2.9518E-006  
  369.50  8.3330E-006  
  370.00  0.0000E+000  
  370.50  0.0000E+000  
  371.00  0.0000E+000  
  371.50  2.4948E-005  
  372.00  9.0280E-005  
  372.50  1.0066E-004  
  373.00  7.7931E-005  
  373.50  5.1005E-005  
  374.00  2.0732E-005  
  374.50  0.0000E+000  
  375.00  0.0000E+000  
  375.50  1.1140E-005  
  376.00  7.1662E-005  
  376.50  9.0129E-005  
  377.00  7.6573E-005  
  377.50  2.1053E-005  
  378.00  0.0000E+000  
  378.50  0.0000E+000  
  379.00  0.0000E+000  
  379.50  0.0000E+000  
  380.00  2.8446E-005  
  380.50  3.8409E-005  
  381.00  7.5007E-005  
  381.50  5.5992E-005  
  382.00  3.3579E-005  
  382.50  6.4014E-005  
  383.00  5.2245E-005  
  383.50  6.2705E-005  
  384.00  9.0206E-005  
  384.50  1.1092E-004  
  385.00  1.4000E-004  
  385.50  1.9820E-004  
  386.00  1.7201E-004  
  386.50  1.4283E-004  
  387.00  1.7645E-004  
  387.50  1.8206E-004  
  388.00  1.8388E-004  
  388.50  1.6182E-004  
  389.00  9.4893E-005  
  389.50  5.9649E-005  
  390.00  8.7478E-005  
  390.50  8.7043E-005  
  391.00  1.4290E-004  
  391.50  1.8279E-004  
  392.00  1.8063E-004  
  392.50  1.9006E-004  
  393.00  2.0820E-004  
  393.50  1.9101E-004  
  394.00  1.7378E-004  
  394.50  1.3268E-004  
  395.00  9.9002E-005  
  395.50  1.4046E-004  
  396.00  2.0178E-004  
  396.50  2.7528E-004  
  397.00  3.1981E-004  
  397.50  3.3698E-004  
  398.00  3.5466E-004  
  398.50  3.3807E-004  
  399.00  3.1208E-004  
  399.50  3.0753E-004  
  400.00  3.3646E-004  
  400.50  3.9864E-004  
  401.00  4.6649E-004  
  401.50  5.5312E-004  
  402.00  5.8977E-004  
  402.50  6.5291E-004  
  403.00  6.6257E-004  
  403.50  6.6606E-004  
  404.00  6.9122E-004  
  404.50  6.9532E-004  
  405.00  7.2952E-004  
  405.50  7.5600E-004  
  406.00  7.9360E-004  
  406.50  8.7671E-004  
  407.00  9.8644E-004  
  407.50  1.0771E-003  
  408.00  1.1034E-003  
  408.50  1.0711E-003  
  409.00  1.1099E-003  
  409.50  1.2109E-003  
  410.00  1.3759E-003  
  410.50  1.5663E-003  
  411.00  1.7035E-003  
  411.50  1.8170E-003  
  412.00  1.9280E-003  
  412.50  1.9899E-003  
  413.00  2.0738E-003  
  413.50  2.2326E-003  
  414.00  2.4030E-003  
  414.50  2.6101E-003  
  415.00  2.8385E-003  
  415.50  3.0824E-003  
  416.00  3.3692E-003  
  416.50  3.6369E-003  
  417.00  3.9230E-003  
  417.50  4.2065E-003  
  418.00  4.5123E-003  
  418.50  4.8163E-003  
  419.00  5.1468E-003  
  419.50  5.5102E-003  
  420.00  5.9385E-003  
  420.50  6.4113E-003  
  421.00  6.8634E-003  
  421.50  7.3238E-003  
  422.00  7.8007E-003  
  422.50  8.3119E-003  
  423.00  8.8956E-003  
  423.50  9.5322E-003  
  424.00  1.0191E-002  
  424.50  1.0846E-002  
  425.00  1.1549E-002  
  425.50  1.2236E-002  
  426.00  1.2997E-002  
  426.50  1.3811E-002  
  427.00  1.4763E-002  
  427.50  1.5808E-002  
  428.00  1.6871E-002  
  428.50  1.7779E-002  
  429.00  1.8701E-002  
  429.50  1.9675E-002  
  430.00  2.0771E-002  
  430.50  2.1944E-002  
  431.00  2.3039E-002  
  431.50  2.4114E-002  
  432.00  2.5282E-002  
  432.50  2.6495E-002  
  433.00  2.7837E-002  
  433.50  2.9199E-002  
  434.00  3.0625E-002  
  434.50  3.2189E-002  
  435.00  3.3886E-002  
  435.50  3.5614E-002  
  436.00  3.7423E-002  
  436.50  3.9230E-002  
  437.00  4.1151E-002  
  437.50  4.3168E-002  
  438.00  4.5207E-002  
  438.50  4.7148E-002  
  439.00  4.9086E-002  
  439.50  5.1194E-002  
  440.00  5.3452E-002  
  440.50  5.6002E-002  
  441.00  5.8491E-002  
  441.50  6.0821E-002  
  442.00  6.3258E-002  
  442.50  6.5542E-002  
  443.00  6.8165E-002  
  443.50  7.0916E-002  
  444.00  7.3807E-002  
  444.50  7.6903E-002  
  445.00  7.9988E-002  
  445.50  8.3029E-002  
  446.00  8.6083E-002  
  446.50  8.8988E-002  
  447.00  9.1827E-002  
  447.50  9.4498E-002  
  448.00  9.6977E-002  
  448.50  9.9392E-002  
  449.00  1.0187E-001  
  449.50  1.0427E-001  
  450.00  1.0647E-001  
  450.50  1.0822E-001  
  451.00  1.0974E-001  
  451.50  1.1078E-001  
  452.00  1.1159E-001  
  452.50  1.1219E-001  
  453.00  1.1226E-001  
  453.50  1.1200E-001  
  454.00  1.1145E-001  
  454.50  1.1061E-001  
  455.00  1.1003E-001  
  455.50  1.0897E-001  
  456.00  1.0755E-001  
  456.50  1.0592E-001  
  457.00  1.0405E-001  
  457.50  1.0208E-001  
  458.00  9.9818E-002  
  458.50  9.7245E-002  
  459.00  9.4576E-002  
  459.50  9.1825E-002  
  460.00  8.9105E-002  
  460.50  8.6522E-002  
  461.00  8.3943E-002  
  461.50  8.1282E-002  
  462.00  7.8678E-002  
  462.50  7.6217E-002  
  463.00  7.3853E-002  
  463.50  7.1625E-002  
  464.00  6.9492E-002  
  464.50  6.7333E-002  
  465.00  6.5310E-002  
  465.50  6.3272E-002  
  466.00  6.1183E-002  
  466.50  5.9236E-002  
  467.00  5.7351E-002  
  467.50  5.5725E-002  
  468.00  5.4229E-002  
  468.50  5.2861E-002  
  469.00  5.1554E-002  
  469.50  5.0215E-002  
  470.00  4.8768E-002  
  470.50  4.7505E-002  
  471.00  4.6204E-002  
  471.50  4.4946E-002  
  472.00  4.3690E-002  
  472.50  4.2413E-002  
  473.00  4.1381E-002  
  473.50  4.0471E-002  
  474.00  3.9444E-002  
  474.50  3.8346E-002  
  475.00  3.7060E-002  
  475.50  3.5878E-002  
  476.00  3.4829E-002  
  476.50  3.3980E-002  
  477.00  3.3215E-002  
  477.50  3.2369E-002  
  478.00  3.1409E-002  
  478.50  3.0522E-002  
  479.00  2.9826E-002  
  479.50  2.9203E-002  
  480.00  2.8666E-002  
  480.50  2.8059E-002  
  481.00  2.7495E-002  
  481.50  2.6895E-002  
  482.00  2.6313E-002  
  482.50  2.5798E-002  
  483.00  2.5313E-002  
  483.50  2.4921E-002  
  484.00  2.4577E-002  
  484.50  2.4254E-002  
  485.00  2.3941E-002  
  485.50  2.3620E-002  
  486.00  2.3273E-002  
  486.50  2.3069E-002  
  487.00  2.2879E-002  
  487.50  2.2738E-002  
  488.00  2.2632E-002  
  488.50  2.2487E-002  
  489.00  2.2426E-002  
  489.50  2.2378E-002  
  490.00  2.2377E-002  
  490.50  2.2437E-002  
  491.00  2.2511E-002  
  491.50  2.2605E-002  
  492.00  2.2722E-002  
  492.50  2.2875E-002  
  493.00  2.3077E-002  
  493.50  2.3283E-002  
  494.00  2.3468E-002  
  494.50  2.3674E-002  
  495.00  2.3886E-002  
  495.50  2.4240E-002  
  496.00  2.4644E-002  
  496.50  2.5063E-002  
  497.00  2.5546E-002  
  497.50  2.6023E-002  
  498.00  2.6542E-002  
  498.50  2.7024E-002  
  499.00  2.7541E-002  
  499.50  2.8113E-002  
  500.00  2.8758E-002  
  500.50  2.9404E-002  
  501.00  3.0045E-002  
  501.50  3.0721E-002  
  502.00  3.1425E-002  
  502.50  3.2171E-002  
  503.00  3.2944E-002  
  503.50  3.3707E-002  
  504.00  3.4563E-002  
  504.50  3.5421E-002  
  505.00  3.6363E-002  
  505.50  3.7275E-002  
  506.00  3.8214E-002  
  506.50  3.9091E-002  
  507.00  4.0014E-002  
  507.50  4.0948E-002  
  508.00  4.1898E-002  
  508.50  4.2830E-002  
  509.00  4.3761E-002  
  509.50  4.4749E-002  
  510.00  4.5799E-002  
  510.50  4.6874E-002  
  511.00  4.7890E-002  
  511.50  4.8872E-002  
  512.00  4.9825E-002  
  512.50  5.0749E-002  
  513.00  5.1796E-002  
  513.50  5.2841E-002  
  514.00  5.3930E-002  
  514.50  5.5053E-002  
  515.00  5.6066E-002  
  515.50  5.7046E-002  
  516.00  5.7953E-002  
  516.50  5.8889E-002  
  517.00  5.9879E-002  
  517.50  6.0922E-002  
  518.00  6.1922E-002  
  518.50  6.2941E-002  
  519.00  6.3909E-002  
  519.50  6.4832E-002  
  520.00  6.5784E-002  
  520.50  6.6754E-002  
  521.00  6.7742E-002  
  521.50  6.8640E-002  
  522.00  6.9479E-002  
  522.50  7.0365E-002  
  523.00  7.1299E-002  
  523.50  7.2246E-002  
  524.00  7.3182E-002  
  524.50  7.4066E-002  
  525.00  7.4891E-002  
  525.50  7.5707E-002  
  526.00  7.6494E-002  
  526.50  7.7305E-002  
  527.00  7.8139E-002  
  527.50  7.8994E-002  
  528.00  7.9793E-002  
  528.50  8.0518E-002  
  529.00  8.1182E-002  
  529.50  8.1849E-002  
  530.00  8.2665E-002  
  530.50  8.3453E-002  
  531.00  8.4307E-002  
  531.50  8.4999E-002  
  532.00  8.5718E-002  
  532.50  8.6350E-002  
  533.00  8.6993E-002  
  533.50  8.7643E-002  
  534.00  8.8236E-002  
  534.50  8.8887E-002  
  535.00  8.9524E-002  
  535.50  9.0122E-002  
  536.00  9.0732E-002  
  536.50  9.1251E-002  
  537.00  9.1806E-002  
  537.50  9.2330E-002  
  538.00  9.2837E-002  
  538.50  9.3348E-002  
  539.00  9.3940E-002  
  539.50  9.4597E-002  
  540.00  9.5203E-002  
  540.50  9.5785E-002  
  541.00  9.6298E-002  
  541.50  9.6789E-002  
  542.00  9.7314E-002  
  542.50  9.7841E-002  
  543.00  9.8464E-002  
  543.50  9.9006E-002  
  544.00  9.9477E-002  
  544.50  9.9863E-002  
  545.00  1.0039E-001  
  545.50  1.0094E-001  
  546.00  1.0136E-001  
  546.50  1.0187E-001  
  547.00  1.0231E-001  
  547.50  1.0287E-001  
  548.00  1.0334E-001  
  548.50  1.0374E-001  
  549.00  1.0421E-001  
  549.50  1.0459E-001  
  550.00  1.0494E-001  
  550.50  1.0545E-001  
  551.00  1.0599E-001  
  551.50  1.0662E-001  
  552.00  1.0711E-001  
  552.50  1.0758E-001  
  553.00  1.0811E-001  
  553.50  1.0860E-001  
  554.00  1.0898E-001  
  554.50  1.0931E-001  
  555.00  1.0953E-001  
  555.50  1.0990E-001  
  556.00  1.1037E-001  
  556.50  1.1076E-001  
  557.00  1.1124E-001  
  557.50  1.1174E-001  
  558.00  1.1229E-001  
  558.50  1.1287E-001  
  559.00  1.1333E-001  
  559.50  1.1374E-001  
  560.00  1.1421E-001  
  560.50  1.1450E-001  
  561.00  1.1486E-001  
  561.50  1.1520E-001  
  562.00  1.1568E-001  
  562.50  1.1621E-001  
  563.00  1.1663E-001  
  563.50  1.1697E-001  
  564.00  1.1727E-001  
  564.50  1.1756E-001  
  565.00  1.1785E-001  
  565.50  1.1817E-001  
  566.00  1.1852E-001  
  566.50  1.1882E-001  
  567.00  1.1893E-001  
  567.50  1.1910E-001  
  568.00  1.1943E-001  
  568.50  1.1987E-001  
  569.00  1.2033E-001  
  569.50  1.2073E-001  
  570.00  1.2102E-001  
  570.50  1.2129E-001  
  571.00  1.2154E-001  
  571.50  1.2184E-001  
  572.00  1.2228E-001  
  572.50  1.2262E-001  
  573.00  1.2291E-001  
  573.50  1.2303E-001  
  574.00  1.2321E-001  
  574.50  1.2340E-001  
  575.00  1.2367E-001  
  575.50  1.2399E-001  
  576.00  1.2439E-001  
  576.50  1.2474E-001  
  577.00  1.2496E-001  
  577.50  1.2513E-001  
  578.00  1.2537E-001  
  578.50  1.2567E-001  
  579.00  1.2593E-001  
  579.50  1.2615E-001  
  580.00  1.2635E-001  
  580.50  1.2664E-001  
  581.00  1.2687E-001  
  581.50  1.2711E-001  
  582.00  1.2721E-001  
  582.50  1.2732E-001  
  583.00  1.2735E-001  
  583.50  1.2758E-001  
  584.00  1.2785E-001  
  584.50  1.2807E-001  
  585.00  1.2812E-001  
  585.50  1.2829E-001  
  586.00  1.2851E-001  
  586.50  1.2883E-001  
  587.00  1.2895E-001  
  587.50  1.2888E-001  
  588.00  1.2890E-001  
  588.50  1.2902E-001  
  589.00  1.2929E-001  
  589.50  1.2937E-001  
  590.00  1.2935E-001  
  590.50  1.2932E-001  
  591.00  1.2945E-001  
  591.50  1.2965E-001  
  592.00  1.2981E-001  
  592.50  1.2979E-001  
  593.00  1.2987E-001  
  593.50  1.2977E-001  
  594.00  1.2984E-001  
  594.50  1.2989E-001  
  595.00  1.2996E-001  
  595.50  1.2991E-001  
  596.00  1.2960E-001  
  596.50  1.2943E-001  
  597.00  1.2945E-001  
  597.50  1.2955E-001  
  598.00  1.2959E-001  
  598.50  1.2959E-001  
  599.00  1.2962E-001  
  599.50  1.2946E-001  
  600.00  1.2929E-001  
  600.50  1.2913E-001  
  601.00  1.2907E-001  
  601.50  1.2900E-001  
  602.00  1.2902E-001  
  602.50  1.2893E-001  
  603.00  1.2877E-001  
  603.50  1.2845E-001  
  604.00  1.2829E-001  
  604.50  1.2816E-001  
  605.00  1.2796E-001  
  605.50  1.2766E-001  
  606.00  1.2744E-001  
  606.50  1.2745E-001  
  607.00  1.2743E-001  
  607.50  1.2724E-001  
  608.00  1.2695E-001  
  608.50  1.2670E-001  
  609.00  1.2667E-001  
  609.50  1.2670E-001  
  610.00  1.2664E-001  
  610.50  1.2643E-001  
  611.00  1.2599E-001  
  611.50  1.2569E-001  
  612.00  1.2548E-001  
  612.50  1.2537E-001  
  613.00  1.2516E-001  
  613.50  1.2475E-001  
  614.00  1.2436E-001  
  614.50  1.2392E-001  
  615.00  1.2351E-001  
  615.50  1.2306E-001  
  616.00  1.2268E-001  
  616.50  1.2244E-001  
  617.00  1.2218E-001  
  617.50  1.2187E-001  
  618.00  1.2133E-001  
  618.50  1.2093E-001  
  619.00  1.2038E-001  
  619.50  1.2002E-001  
  620.00  1.1969E-001  
  620.50  1.1949E-001  
  621.00  1.1927E-001  
  621.50  1.1884E-001  
  622.00  1.1834E-001  
  622.50  1.1763E-001  
  623.00  1.1699E-001  
  623.50  1.1643E-001  
  624.00  1.1613E-001  
  624.50  1.1572E-001  
  625.00  1.1529E-001  
  625.50  1.1478E-001  
  626.00  1.1440E-001  
  626.50  1.1400E-001  
  627.00  1.1366E-001  
  627.50  1.1323E-001  
  628.00  1.1270E-001  
  628.50  1.1202E-001  
  629.00  1.1144E-001  
  629.50  1.1095E-001  
  630.00  1.1062E-001  
  630.50  1.1013E-001  
  631.00  1.0961E-001  
  631.50  1.0908E-001  
  632.00  1.0852E-001  
  632.50  1.0783E-001  
  633.00  1.0711E-001  
  633.50  1.0645E-001  
  634.00  1.0621E-001  
  634.50  1.0585E-001  
  635.00  1.0549E-001  
  635.50  1.0479E-001  
  636.00  1.0396E-001  
  636.50  1.0308E-001  
  637.00  1.0227E-001  
  637.50  1.0163E-001  
  638.00  1.0115E-001  
  638.50  1.0072E-001  
  639.00  1.0028E-001  
  639.50  9.9601E-002  
  640.00  9.8956E-002  
  640.50  9.8228E-002  
  641.00  9.7539E-002  
  641.50  9.6807E-002  
  642.00  9.6141E-002  
  642.50  9.5516E-002  
  643.00  9.4860E-002  
  643.50  9.4174E-002  
  644.00  9.3687E-002  
  644.50  9.3135E-002  
  645.00  9.2486E-002  
  645.50  9.1796E-002  
  646.00  9.1223E-002  
  646.50  9.0714E-002  
  647.00  9.0063E-002  
  647.50  8.9237E-002  
  648.00  8.8499E-002  
  648.50  8.7894E-002  
  649.00  8.7402E-002  
  649.50  8.6755E-002  
  650.00  8.5953E-002  
  650.50  8.5110E-002  
  651.00  8.4375E-002  
  651.50  8.3606E-002  
  652.00  8.2806E-002  
  652.50  8.2094E-002  
  653.00  8.1380E-002  
  653.50  8.0716E-002  
  654.00  8.0057E-002  
  654.50  7.9444E-002  
  655.00  7.8915E-002  
  655.50  7.8287E-002  
  656.00  7.7721E-002  
  656.50  7.7010E-002  
  657.00  7.6275E-002  
  657.50  7.5594E-002  
  658.00  7.4873E-002  
  658.50  7.4214E-002  
  659.00  7.3546E-002  
  659.50  7.2976E-002  
  660.00  7.2255E-002  
  660.50  7.1512E-002  
  661.00  7.0673E-002  
  661.50  6.9948E-002  
  662.00  6.9119E-002  
  662.50  6.8377E-002  
  663.00  6.7705E-002  
  663.50  6.7189E-002  
  664.00  6.6602E-002  
  664.50  6.5913E-002  
  665.00  6.5126E-002  
  665.50  6.4377E-002  
  666.00  6.3615E-002  
  666.50  6.3086E-002  
  667.00  6.2583E-002  
  667.50  6.2053E-002  
  668.00  6.1260E-002  
  668.50  6.0615E-002  
  669.00  6.0101E-002  
  669.50  5.9482E-002  
  670.00  5.8719E-002  
  670.50  5.7930E-002  
  671.00  5.7226E-002  
  671.50  5.6725E-002  
  672.00  5.6311E-002  
  672.50  5.5888E-002  
  673.00  5.5157E-002  
  673.50  5.4353E-002  
  674.00  5.3685E-002  
  674.50  5.3226E-002  
  675.00  5.2812E-002  
  675.50  5.2315E-002  
  676.00  5.1739E-002  
  676.50  5.1039E-002  
  677.00  5.0364E-002  
  677.50  4.9732E-002  
  678.00  4.9127E-002  
  678.50  4.8505E-002  
  679.00  4.7891E-002  
  679.50  4.7360E-002  
  680.00  4.6753E-002  
