
# From lspdd.org
# 
# Name: DEL Philips Streetview-2amber-board-and-1white-board Lampadaire
# Indice spectral Valeur 
# MSI 0.20 
# SLI 0.34 
# IPI 0.58 
# Pourcentage de bleu 12.6 
# Caractéristique Valeur 
# CCT calculée (K) 2356 
# CCT du fabricant (K) ND 
# Tension (V) ND 
# Puissance (W) ND 
# Efficacité lumineuse (Lum/W) ND 
#
# Image: '/app/system/img_2s/2542/medium_image2.JPG?1413486185'
# Image: '/app/system/img_1s/2542/medium_image1.jpg?1413486200'
# 

  273.00  0.0000E+000  
  273.50  0.0000E+000  
  274.00  0.0000E+000  
  274.50  0.0000E+000  
  275.00  0.0000E+000  
  275.50  0.0000E+000  
  276.00  0.0000E+000  
  276.50  0.0000E+000  
  277.00  0.0000E+000  
  277.50  0.0000E+000  
  278.00  0.0000E+000  
  278.50  0.0000E+000  
  279.00  0.0000E+000  
  279.50  0.0000E+000  
  280.00  0.0000E+000  
  280.50  0.0000E+000  
  281.00  0.0000E+000  
  281.50  0.0000E+000  
  282.00  0.0000E+000  
  282.50  0.0000E+000  
  283.00  0.0000E+000  
  283.50  0.0000E+000  
  284.00  0.0000E+000  
  284.50  0.0000E+000  
  285.00  0.0000E+000  
  285.50  0.0000E+000  
  286.00  0.0000E+000  
  286.50  0.0000E+000  
  287.00  0.0000E+000  
  287.50  0.0000E+000  
  288.00  0.0000E+000  
  288.50  0.0000E+000  
  289.00  0.0000E+000  
  289.50  0.0000E+000  
  290.00  0.0000E+000  
  290.50  0.0000E+000  
  291.00  0.0000E+000  
  291.50  0.0000E+000  
  292.00  0.0000E+000  
  292.50  0.0000E+000  
  293.00  0.0000E+000  
  293.50  0.0000E+000  
  294.00  0.0000E+000  
  294.50  0.0000E+000  
  295.00  0.0000E+000  
  295.50  0.0000E+000  
  296.00  0.0000E+000  
  296.50  0.0000E+000  
  297.00  0.0000E+000  
  297.50  0.0000E+000  
  298.00  0.0000E+000  
  298.50  0.0000E+000  
  299.00  0.0000E+000  
  299.50  0.0000E+000  
  300.00  5.8754E-006  
  300.50  5.2843E-006  
  301.00  0.0000E+000  
  301.50  8.6480E-006  
  302.00  6.0100E-005  
  302.50  1.3577E-004  
  303.00  1.8984E-004  
  303.50  1.5624E-004  
  304.00  1.1019E-004  
  304.50  5.7274E-005  
  305.00  0.0000E+000  
  305.50  0.0000E+000  
  306.00  0.0000E+000  
  306.50  0.0000E+000  
  307.00  1.3158E-005  
  307.50  1.5325E-006  
  308.00  0.0000E+000  
  308.50  0.0000E+000  
  309.00  2.1601E-006  
  309.50  0.0000E+000  
  310.00  0.0000E+000  
  310.50  0.0000E+000  
  311.00  0.0000E+000  
  311.50  0.0000E+000  
  312.00  0.0000E+000  
  312.50  0.0000E+000  
  313.00  0.0000E+000  
  313.50  0.0000E+000  
  314.00  2.7681E-005  
  314.50  2.3944E-005  
  315.00  5.8703E-005  
  315.50  1.2302E-004  
  316.00  1.4454E-004  
  316.50  1.3055E-004  
  317.00  9.6065E-005  
  317.50  7.1711E-005  
  318.00  8.2915E-005  
  318.50  8.9210E-005  
  319.00  6.8460E-005  
  319.50  5.1917E-005  
  320.00  3.0109E-005  
  320.50  2.1771E-005  
  321.00  1.7252E-005  
  321.50  0.0000E+000  
  322.00  0.0000E+000  
  322.50  0.0000E+000  
  323.00  0.0000E+000  
  323.50  0.0000E+000  
  324.00  1.3562E-005  
  324.50  6.5280E-005  
  325.00  8.6737E-005  
  325.50  6.5538E-005  
  326.00  2.8538E-005  
  326.50  9.4746E-007  
  327.00  1.2531E-005  
  327.50  3.8814E-005  
  328.00  5.3157E-005  
  328.50  3.0607E-005  
  329.00  0.0000E+000  
  329.50  0.0000E+000  
  330.00  9.7572E-007  
  330.50  1.3180E-005  
  331.00  1.9651E-005  
  331.50  1.4191E-005  
  332.00  0.0000E+000  
  332.50  3.5453E-006  
  333.00  0.0000E+000  
  333.50  0.0000E+000  
  334.00  0.0000E+000  
  334.50  0.0000E+000  
  335.00  1.8296E-005  
  335.50  4.6184E-005  
  336.00  4.3144E-005  
  336.50  0.0000E+000  
  337.00  0.0000E+000  
  337.50  0.0000E+000  
  338.00  8.9727E-006  
  338.50  5.5187E-005  
  339.00  1.1108E-004  
  339.50  8.1143E-005  
  340.00  3.6675E-005  
  340.50  2.7281E-005  
  341.00  0.0000E+000  
  341.50  0.0000E+000  
  342.00  0.0000E+000  
  342.50  7.7126E-006  
  343.00  2.0641E-005  
  343.50  1.6013E-005  
  344.00  2.9375E-005  
  344.50  4.3835E-006  
  345.00  4.9767E-006  
  345.50  7.4222E-006  
  346.00  1.2404E-005  
  346.50  2.5617E-007  
  347.00  0.0000E+000  
  347.50  0.0000E+000  
  348.00  0.0000E+000  
  348.50  4.2576E-006  
  349.00  2.5693E-005  
  349.50  6.7668E-005  
  350.00  6.3432E-005  
  350.50  5.0843E-005  
  351.00  7.7488E-005  
  351.50  7.8982E-005  
  352.00  8.2508E-005  
  352.50  7.6733E-005  
  353.00  7.1604E-005  
  353.50  6.4252E-005  
  354.00  3.8737E-005  
  354.50  1.3318E-005  
  355.00  0.0000E+000  
  355.50  0.0000E+000  
  356.00  0.0000E+000  
  356.50  0.0000E+000  
  357.00  0.0000E+000  
  357.50  0.0000E+000  
  358.00  0.0000E+000  
  358.50  0.0000E+000  
  359.00  0.0000E+000  
  359.50  0.0000E+000  
  360.00  0.0000E+000  
  360.50  0.0000E+000  
  361.00  0.0000E+000  
  361.50  4.8743E-005  
  362.00  7.7226E-005  
  362.50  3.4243E-005  
  363.00  1.6042E-005  
  363.50  7.3063E-006  
  364.00  0.0000E+000  
  364.50  5.0382E-005  
  365.00  7.9715E-005  
  365.50  1.4663E-004  
  366.00  1.9712E-004  
  366.50  2.1694E-004  
  367.00  2.0470E-004  
  367.50  1.5880E-004  
  368.00  1.2112E-004  
  368.50  9.9028E-005  
  369.00  9.5013E-005  
  369.50  6.5437E-005  
  370.00  7.1589E-005  
  370.50  9.4112E-005  
  371.00  1.0094E-004  
  371.50  1.1765E-004  
  372.00  1.3273E-004  
  372.50  1.3491E-004  
  373.00  1.3043E-004  
  373.50  1.4587E-004  
  374.00  1.1975E-004  
  374.50  8.0399E-005  
  375.00  4.0820E-005  
  375.50  1.9350E-006  
  376.00  2.9989E-005  
  376.50  3.2858E-005  
  377.00  4.5034E-005  
  377.50  5.0114E-005  
  378.00  7.4066E-005  
  378.50  1.2329E-004  
  379.00  1.2961E-004  
  379.50  9.1760E-005  
  380.00  4.4569E-005  
  380.50  0.0000E+000  
  381.00  1.3887E-005  
  381.50  1.9883E-005  
  382.00  7.7671E-005  
  382.50  9.4381E-005  
  383.00  9.0820E-005  
  383.50  8.9044E-005  
  384.00  5.8472E-005  
  384.50  1.5690E-005  
  385.00  2.9204E-007  
  385.50  6.2617E-006  
  386.00  4.5590E-005  
  386.50  8.8411E-005  
  387.00  1.1025E-004  
  387.50  7.5197E-005  
  388.00  1.2228E-005  
  388.50  0.0000E+000  
  389.00  0.0000E+000  
  389.50  1.6696E-005  
  390.00  7.6769E-005  
  390.50  5.6909E-005  
  391.00  4.9682E-005  
  391.50  5.4187E-005  
  392.00  6.1776E-005  
  392.50  1.2511E-004  
  393.00  1.3103E-004  
  393.50  1.1285E-004  
  394.00  7.5725E-005  
  394.50  6.4602E-007  
  395.00  1.5353E-005  
  395.50  1.7504E-005  
  396.00  5.9492E-005  
  396.50  8.3259E-005  
  397.00  7.5549E-005  
  397.50  1.1876E-004  
  398.00  1.6218E-004  
  398.50  1.7112E-004  
  399.00  1.2394E-004  
  399.50  9.3633E-005  
  400.00  6.5098E-005  
  400.50  1.3053E-004  
  401.00  2.1820E-004  
  401.50  2.2506E-004  
  402.00  2.0787E-004  
  402.50  1.5684E-004  
  403.00  1.4175E-004  
  403.50  1.7060E-004  
  404.00  2.2986E-004  
  404.50  2.5103E-004  
  405.00  2.3601E-004  
  405.50  2.2069E-004  
  406.00  2.0177E-004  
  406.50  2.3418E-004  
  407.00  3.0003E-004  
  407.50  3.4663E-004  
  408.00  3.4710E-004  
  408.50  3.1049E-004  
  409.00  2.7528E-004  
  409.50  3.3948E-004  
  410.00  4.2583E-004  
  410.50  5.0697E-004  
  411.00  5.3708E-004  
  411.50  5.3103E-004  
  412.00  5.6834E-004  
  412.50  6.3470E-004  
  413.00  7.3342E-004  
  413.50  8.0725E-004  
  414.00  8.4511E-004  
  414.50  8.4277E-004  
  415.00  8.4750E-004  
  415.50  9.2274E-004  
  416.00  1.0481E-003  
  416.50  1.1774E-003  
  417.00  1.2703E-003  
  417.50  1.3160E-003  
  418.00  1.3628E-003  
  418.50  1.4493E-003  
  419.00  1.5568E-003  
  419.50  1.7025E-003  
  420.00  1.8279E-003  
  420.50  1.9765E-003  
  421.00  2.1005E-003  
  421.50  2.2435E-003  
  422.00  2.4035E-003  
  422.50  2.5409E-003  
  423.00  2.7547E-003  
  423.50  2.9359E-003  
  424.00  3.1446E-003  
  424.50  3.3460E-003  
  425.00  3.5369E-003  
  425.50  3.7387E-003  
  426.00  3.9536E-003  
  426.50  4.1683E-003  
  427.00  4.3949E-003  
  427.50  4.6216E-003  
  428.00  4.8467E-003  
  428.50  5.0859E-003  
  429.00  5.3306E-003  
  429.50  5.5726E-003  
  430.00  5.8098E-003  
  430.50  6.0216E-003  
  431.00  6.2590E-003  
  431.50  6.4501E-003  
  432.00  6.6609E-003  
  432.50  6.8897E-003  
  433.00  7.1769E-003  
  433.50  7.4534E-003  
  434.00  7.7177E-003  
  434.50  7.9783E-003  
  435.00  8.2675E-003  
  435.50  8.6066E-003  
  436.00  8.9450E-003  
  436.50  9.2436E-003  
  437.00  9.5844E-003  
  437.50  9.9239E-003  
  438.00  1.0264E-002  
  438.50  1.0532E-002  
  439.00  1.0777E-002  
  439.50  1.1045E-002  
  440.00  1.1374E-002  
  440.50  1.1759E-002  
  441.00  1.2157E-002  
  441.50  1.2543E-002  
  442.00  1.2937E-002  
  442.50  1.3181E-002  
  443.00  1.3429E-002  
  443.50  1.3574E-002  
  444.00  1.3673E-002  
  444.50  1.3809E-002  
  445.00  1.3936E-002  
  445.50  1.4069E-002  
  446.00  1.4144E-002  
  446.50  1.4184E-002  
  447.00  1.4038E-002  
  447.50  1.3825E-002  
  448.00  1.3526E-002  
  448.50  1.3115E-002  
  449.00  1.2756E-002  
  449.50  1.2339E-002  
  450.00  1.1927E-002  
  450.50  1.1484E-002  
  451.00  1.1001E-002  
  451.50  1.0556E-002  
  452.00  1.0103E-002  
  452.50  9.6426E-003  
  453.00  9.1786E-003  
  453.50  8.6935E-003  
  454.00  8.2671E-003  
  454.50  7.8000E-003  
  455.00  7.4311E-003  
  455.50  7.0716E-003  
  456.00  6.7765E-003  
  456.50  6.5348E-003  
  457.00  6.3183E-003  
  457.50  6.0862E-003  
  458.00  5.8492E-003  
  458.50  5.6343E-003  
  459.00  5.4502E-003  
  459.50  5.3129E-003  
  460.00  5.1984E-003  
  460.50  5.0283E-003  
  461.00  4.8523E-003  
  461.50  4.6838E-003  
  462.00  4.5305E-003  
  462.50  4.4121E-003  
  463.00  4.2857E-003  
  463.50  4.1431E-003  
  464.00  4.0135E-003  
  464.50  3.9025E-003  
  465.00  3.7645E-003  
  465.50  3.6977E-003  
  466.00  3.5880E-003  
  466.50  3.4592E-003  
  467.00  3.3213E-003  
  467.50  3.1758E-003  
  468.00  3.0901E-003  
  468.50  3.0409E-003  
  469.00  2.9468E-003  
  469.50  2.8275E-003  
  470.00  2.7221E-003  
  470.50  2.6413E-003  
  471.00  2.6177E-003  
  471.50  2.6053E-003  
  472.00  2.6028E-003  
  472.50  2.5877E-003  
  473.00  2.5414E-003  
  473.50  2.4392E-003  
  474.00  2.3323E-003  
  474.50  2.2573E-003  
  475.00  2.2309E-003  
  475.50  2.2477E-003  
  476.00  2.2541E-003  
  476.50  2.2633E-003  
  477.00  2.2368E-003  
  477.50  2.2160E-003  
  478.00  2.2091E-003  
  478.50  2.2208E-003  
  479.00  2.2597E-003  
  479.50  2.2780E-003  
  480.00  2.2721E-003  
  480.50  2.2516E-003  
  481.00  2.2126E-003  
  481.50  2.1939E-003  
  482.00  2.2143E-003  
  482.50  2.2356E-003  
  483.00  2.2562E-003  
  483.50  2.2696E-003  
  484.00  2.2997E-003  
  484.50  2.3581E-003  
  485.00  2.3827E-003  
  485.50  2.3909E-003  
  486.00  2.3975E-003  
  486.50  2.4359E-003  
  487.00  2.4661E-003  
  487.50  2.4985E-003  
  488.00  2.5214E-003  
  488.50  2.5601E-003  
  489.00  2.6215E-003  
  489.50  2.6557E-003  
  490.00  2.7006E-003  
  490.50  2.7667E-003  
  491.00  2.8696E-003  
  491.50  2.9688E-003  
  492.00  3.0646E-003  
  492.50  3.1464E-003  
  493.00  3.2132E-003  
  493.50  3.2495E-003  
  494.00  3.2625E-003  
  494.50  3.3136E-003  
  495.00  3.3983E-003  
  495.50  3.4929E-003  
  496.00  3.5916E-003  
  496.50  3.6761E-003  
  497.00  3.7861E-003  
  497.50  3.8709E-003  
  498.00  3.9663E-003  
  498.50  4.0596E-003  
  499.00  4.1636E-003  
  499.50  4.2546E-003  
  500.00  4.3318E-003  
  500.50  4.4080E-003  
  501.00  4.4746E-003  
  501.50  4.5639E-003  
  502.00  4.6658E-003  
  502.50  4.7850E-003  
  503.00  4.8952E-003  
  503.50  4.9931E-003  
  504.00  5.0784E-003  
  504.50  5.1645E-003  
  505.00  5.2494E-003  
  505.50  5.3113E-003  
  506.00  5.4010E-003  
  506.50  5.4916E-003  
  507.00  5.6205E-003  
  507.50  5.7897E-003  
  508.00  5.9291E-003  
  508.50  6.0512E-003  
  509.00  6.1609E-003  
  509.50  6.2554E-003  
  510.00  6.3721E-003  
  510.50  6.4368E-003  
  511.00  6.5114E-003  
  511.50  6.5694E-003  
  512.00  6.6589E-003  
  512.50  6.7457E-003  
  513.00  6.8392E-003  
  513.50  6.9684E-003  
  514.00  7.1057E-003  
  514.50  7.2588E-003  
  515.00  7.3551E-003  
  515.50  7.4437E-003  
  516.00  7.5136E-003  
  516.50  7.6174E-003  
  517.00  7.7214E-003  
  517.50  7.8376E-003  
  518.00  7.9711E-003  
  518.50  8.1060E-003  
  519.00  8.2118E-003  
  519.50  8.2839E-003  
  520.00  8.3513E-003  
  520.50  8.4277E-003  
  521.00  8.5271E-003  
  521.50  8.6484E-003  
  522.00  8.8041E-003  
  522.50  8.9692E-003  
  523.00  9.0980E-003  
  523.50  9.1683E-003  
  524.00  9.2462E-003  
  524.50  9.3444E-003  
  525.00  9.4676E-003  
  525.50  9.6422E-003  
  526.00  9.7637E-003  
  526.50  9.9126E-003  
  527.00  9.9874E-003  
  527.50  1.0092E-002  
  528.00  1.0195E-002  
  528.50  1.0305E-002  
  529.00  1.0434E-002  
  529.50  1.0608E-002  
  530.00  1.0803E-002  
  530.50  1.1007E-002  
  531.00  1.1198E-002  
  531.50  1.1338E-002  
  532.00  1.1468E-002  
  532.50  1.1587E-002  
  533.00  1.1752E-002  
  533.50  1.1973E-002  
  534.00  1.2215E-002  
  534.50  1.2427E-002  
  535.00  1.2645E-002  
  535.50  1.2813E-002  
  536.00  1.3028E-002  
  536.50  1.3207E-002  
  537.00  1.3429E-002  
  537.50  1.3624E-002  
  538.00  1.3800E-002  
  538.50  1.3973E-002  
  539.00  1.4235E-002  
  539.50  1.4545E-002  
  540.00  1.4883E-002  
  540.50  1.5155E-002  
  541.00  1.5409E-002  
  541.50  1.5681E-002  
  542.00  1.5963E-002  
  542.50  1.6240E-002  
  543.00  1.6516E-002  
  543.50  1.6798E-002  
  544.00  1.7052E-002  
  544.50  1.7342E-002  
  545.00  1.7700E-002  
  545.50  1.8109E-002  
  546.00  1.8494E-002  
  546.50  1.8836E-002  
  547.00  1.9148E-002  
  547.50  1.9484E-002  
  548.00  1.9835E-002  
  548.50  2.0251E-002  
  549.00  2.0690E-002  
  549.50  2.1127E-002  
  550.00  2.1485E-002  
  550.50  2.1872E-002  
  551.00  2.2364E-002  
  551.50  2.2900E-002  
  552.00  2.3437E-002  
  552.50  2.3896E-002  
  553.00  2.4279E-002  
  553.50  2.4712E-002  
  554.00  2.5112E-002  
  554.50  2.5570E-002  
  555.00  2.6052E-002  
  555.50  2.6542E-002  
  556.00  2.7033E-002  
  556.50  2.7538E-002  
  557.00  2.8011E-002  
  557.50  2.8585E-002  
  558.00  2.9172E-002  
  558.50  2.9735E-002  
  559.00  3.0244E-002  
  559.50  3.0683E-002  
  560.00  3.1179E-002  
  560.50  3.1695E-002  
  561.00  3.2226E-002  
  561.50  3.2701E-002  
  562.00  3.3206E-002  
  562.50  3.3715E-002  
  563.00  3.4234E-002  
  563.50  3.4742E-002  
  564.00  3.5225E-002  
  564.50  3.5715E-002  
  565.00  3.6228E-002  
  565.50  3.6769E-002  
  566.00  3.7286E-002  
  566.50  3.7826E-002  
  567.00  3.8303E-002  
  567.50  3.8756E-002  
  568.00  3.9229E-002  
  568.50  3.9726E-002  
  569.00  4.0256E-002  
  569.50  4.0748E-002  
  570.00  4.1208E-002  
  570.50  4.1625E-002  
  571.00  4.2033E-002  
  571.50  4.2464E-002  
  572.00  4.2933E-002  
  572.50  4.3356E-002  
  573.00  4.3761E-002  
  573.50  4.4182E-002  
  574.00  4.4618E-002  
  574.50  4.5035E-002  
  575.00  4.5424E-002  
  575.50  4.5808E-002  
  576.00  4.6186E-002  
  576.50  4.6462E-002  
  577.00  4.6735E-002  
  577.50  4.7058E-002  
  578.00  4.7401E-002  
  578.50  4.7790E-002  
  579.00  4.8132E-002  
  579.50  4.8503E-002  
  580.00  4.8806E-002  
  580.50  4.9048E-002  
  581.00  4.9241E-002  
  581.50  4.9418E-002  
  582.00  4.9665E-002  
  582.50  4.9903E-002  
  583.00  5.0055E-002  
  583.50  5.0229E-002  
  584.00  5.0431E-002  
  584.50  5.0624E-002  
  585.00  5.0834E-002  
  585.50  5.0984E-002  
  586.00  5.1147E-002  
  586.50  5.1283E-002  
  587.00  5.1348E-002  
  587.50  5.1424E-002  
  588.00  5.1496E-002  
  588.50  5.1617E-002  
  589.00  5.1761E-002  
  589.50  5.1840E-002  
  590.00  5.1827E-002  
  590.50  5.1780E-002  
  591.00  5.1795E-002  
  591.50  5.1801E-002  
  592.00  5.1817E-002  
  592.50  5.1829E-002  
  593.00  5.1918E-002  
  593.50  5.1833E-002  
  594.00  5.1768E-002  
  594.50  5.1603E-002  
  595.00  5.1474E-002  
  595.50  5.1239E-002  
  596.00  5.1043E-002  
  596.50  5.0948E-002  
  597.00  5.0980E-002  
  597.50  5.0968E-002  
  598.00  5.0875E-002  
  598.50  5.0728E-002  
  599.00  5.0592E-002  
  599.50  5.0461E-002  
  600.00  5.0319E-002  
  600.50  5.0216E-002  
  601.00  5.0108E-002  
  601.50  4.9911E-002  
  602.00  4.9627E-002  
  602.50  4.9344E-002  
  603.00  4.9085E-002  
  603.50  4.8826E-002  
  604.00  4.8594E-002  
  604.50  4.8384E-002  
  605.00  4.8142E-002  
  605.50  4.7802E-002  
  606.00  4.7477E-002  
  606.50  4.7255E-002  
  607.00  4.7112E-002  
  607.50  4.6861E-002  
  608.00  4.6581E-002  
  608.50  4.6295E-002  
  609.00  4.5994E-002  
  609.50  4.5728E-002  
  610.00  4.5379E-002  
  610.50  4.5084E-002  
  611.00  4.4733E-002  
  611.50  4.4364E-002  
  612.00  4.4076E-002  
  612.50  4.3820E-002  
  613.00  4.3560E-002  
  613.50  4.3272E-002  
  614.00  4.3022E-002  
  614.50  4.2763E-002  
  615.00  4.2456E-002  
  615.50  4.2012E-002  
  616.00  4.1568E-002  
  616.50  4.1153E-002  
  617.00  4.0721E-002  
  617.50  4.0309E-002  
  618.00  3.9958E-002  
  618.50  3.9772E-002  
  619.00  3.9557E-002  
  619.50  3.9186E-002  
  620.00  3.8730E-002  
  620.50  3.8312E-002  
  621.00  3.8035E-002  
  621.50  3.7756E-002  
  622.00  3.7553E-002  
  622.50  3.7203E-002  
  623.00  3.6803E-002  
  623.50  3.6297E-002  
  624.00  3.5881E-002  
  624.50  3.5588E-002  
  625.00  3.5361E-002  
  625.50  3.5155E-002  
  626.00  3.4827E-002  
  626.50  3.4372E-002  
  627.00  3.3897E-002  
  627.50  3.3435E-002  
  628.00  3.3073E-002  
  628.50  3.2725E-002  
  629.00  3.2393E-002  
  629.50  3.2041E-002  
  630.00  3.1667E-002  
  630.50  3.1354E-002  
  631.00  3.1111E-002  
  631.50  3.0819E-002  
  632.00  3.0496E-002  
  632.50  3.0111E-002  
  633.00  2.9798E-002  
  633.50  2.9532E-002  
  634.00  2.9192E-002  
  634.50  2.8841E-002  
  635.00  2.8497E-002  
  635.50  2.8164E-002  
  636.00  2.7772E-002  
  636.50  2.7415E-002  
  637.00  2.7130E-002  
  637.50  2.6931E-002  
  638.00  2.6627E-002  
  638.50  2.6315E-002  
  639.00  2.5985E-002  
  639.50  2.5639E-002  
  640.00  2.5272E-002  
  640.50  2.4901E-002  
  641.00  2.4603E-002  
  641.50  2.4312E-002  
  642.00  2.3979E-002  
  642.50  2.3660E-002  
  643.00  2.3434E-002  
  643.50  2.3191E-002  
  644.00  2.2940E-002  
  644.50  2.2600E-002  
  645.00  2.2324E-002  
  645.50  2.2047E-002  
  646.00  2.1788E-002  
  646.50  2.1493E-002  
  647.00  2.1255E-002  
  647.50  2.0975E-002  
  648.00  2.0713E-002  
  648.50  2.0364E-002  
  649.00  2.0067E-002  
  649.50  1.9782E-002  
  650.00  1.9515E-002  
  650.50  1.9270E-002  
  651.00  1.8999E-002  
  651.50  1.8734E-002  
  652.00  1.8483E-002  
  652.50  1.8277E-002  
  653.00  1.8072E-002  
  653.50  1.7832E-002  
  654.00  1.7536E-002  
  654.50  1.7278E-002  
  655.00  1.7004E-002  
  655.50  1.6744E-002  
  656.00  1.6460E-002  
  656.50  1.6279E-002  
  657.00  1.6105E-002  
  657.50  1.5864E-002  
  658.00  1.5552E-002  
  658.50  1.5320E-002  
  659.00  1.5183E-002  
  659.50  1.5014E-002  
  660.00  1.4754E-002  
  660.50  1.4503E-002  
  661.00  1.4282E-002  
  661.50  1.4158E-002  
  662.00  1.4016E-002  
  662.50  1.3830E-002  
  663.00  1.3568E-002  
  663.50  1.3333E-002  
  664.00  1.3162E-002  
  664.50  1.2942E-002  
  665.00  1.2681E-002  
  665.50  1.2394E-002  
  666.00  1.2191E-002  
  666.50  1.2008E-002  
  667.00  1.1884E-002  
  667.50  1.1781E-002  
  668.00  1.1619E-002  
  668.50  1.1424E-002  
  669.00  1.1223E-002  
  669.50  1.1103E-002  
  670.00  1.1008E-002  
  670.50  1.0885E-002  
  671.00  1.0686E-002  
  671.50  1.0480E-002  
  672.00  1.0292E-002  
  672.50  1.0113E-002  
  673.00  9.9384E-003  
  673.50  9.7441E-003  
  674.00  9.6612E-003  
  674.50  9.5374E-003  
  675.00  9.3874E-003  
  675.50  9.1461E-003  
  676.00  8.9532E-003  
  676.50  8.9478E-003  
  677.00  8.9191E-003  
  677.50  8.8573E-003  
  678.00  8.6597E-003  
  678.50  8.4928E-003  
  679.00  8.3571E-003  
