
# From lspdd.org
# 
# Name: DEL CREE A19 Domestique
# Indice spectral Valeur 
# MSI 0.25 
# SLI 0.47 
# IPI 0.64 
# Pourcentage de bleu 17.1 
# Caractéristique Valeur 
# CCT calculée (K) 2636 
# CCT du fabricant (K) 2700 
# Tension (V) 120 
# Puissance (W) 6.0 
# Efficacité lumineuse (Lum/W) 75.0 
#
# Image: '/app/system/img_2s/2547/medium_image2.JPG?1413486241'
# Image: '/app/system/img_1s/2547/medium_image1.JPG?1413486245'
# 

  273.00  0.0000E+000  
  273.50  0.0000E+000  
  274.00  0.0000E+000  
  274.50  0.0000E+000  
  275.00  0.0000E+000  
  275.50  0.0000E+000  
  276.00  0.0000E+000  
  276.50  0.0000E+000  
  277.00  0.0000E+000  
  277.50  0.0000E+000  
  278.00  0.0000E+000  
  278.50  0.0000E+000  
  279.00  0.0000E+000  
  279.50  0.0000E+000  
  280.00  0.0000E+000  
  280.50  0.0000E+000  
  281.00  0.0000E+000  
  281.50  0.0000E+000  
  282.00  0.0000E+000  
  282.50  0.0000E+000  
  283.00  0.0000E+000  
  283.50  0.0000E+000  
  284.00  0.0000E+000  
  284.50  0.0000E+000  
  285.00  0.0000E+000  
  285.50  0.0000E+000  
  286.00  0.0000E+000  
  286.50  0.0000E+000  
  287.00  0.0000E+000  
  287.50  0.0000E+000  
  288.00  0.0000E+000  
  288.50  0.0000E+000  
  289.00  0.0000E+000  
  289.50  0.0000E+000  
  290.00  0.0000E+000  
  290.50  0.0000E+000  
  291.00  0.0000E+000  
  291.50  0.0000E+000  
  292.00  0.0000E+000  
  292.50  0.0000E+000  
  293.00  0.0000E+000  
  293.50  0.0000E+000  
  294.00  0.0000E+000  
  294.50  0.0000E+000  
  295.00  0.0000E+000  
  295.50  0.0000E+000  
  296.00  0.0000E+000  
  296.50  0.0000E+000  
  297.00  0.0000E+000  
  297.50  0.0000E+000  
  298.00  0.0000E+000  
  298.50  0.0000E+000  
  299.00  0.0000E+000  
  299.50  0.0000E+000  
  300.00  0.0000E+000  
  300.50  0.0000E+000  
  301.00  0.0000E+000  
  301.50  0.0000E+000  
  302.00  1.4775E-005  
  302.50  4.5525E-005  
  303.00  8.5633E-005  
  303.50  9.9924E-005  
  304.00  6.1721E-005  
  304.50  4.4155E-005  
  305.00  2.5343E-005  
  305.50  2.8393E-005  
  306.00  3.0666E-005  
  306.50  3.8792E-006  
  307.00  2.2352E-005  
  307.50  6.2532E-006  
  308.00  1.9855E-005  
  308.50  5.3848E-005  
  309.00  3.3922E-005  
  309.50  4.7535E-005  
  310.00  4.9300E-005  
  310.50  4.0490E-005  
  311.00  3.6482E-005  
  311.50  3.5368E-005  
  312.00  3.7381E-005  
  312.50  2.3611E-005  
  313.00  1.1929E-005  
  313.50  0.0000E+000  
  314.00  0.0000E+000  
  314.50  0.0000E+000  
  315.00  0.0000E+000  
  315.50  0.0000E+000  
  316.00  0.0000E+000  
  316.50  0.0000E+000  
  317.00  0.0000E+000  
  317.50  0.0000E+000  
  318.00  0.0000E+000  
  318.50  0.0000E+000  
  319.00  0.0000E+000  
  319.50  0.0000E+000  
  320.00  0.0000E+000  
  320.50  0.0000E+000  
  321.00  0.0000E+000  
  321.50  0.0000E+000  
  322.00  0.0000E+000  
  322.50  0.0000E+000  
  323.00  0.0000E+000  
  323.50  0.0000E+000  
  324.00  0.0000E+000  
  324.50  6.8052E-006  
  325.00  3.1515E-005  
  325.50  5.4744E-005  
  326.00  4.0061E-005  
  326.50  2.5431E-006  
  327.00  0.0000E+000  
  327.50  0.0000E+000  
  328.00  0.0000E+000  
  328.50  0.0000E+000  
  329.00  0.0000E+000  
  329.50  0.0000E+000  
  330.00  0.0000E+000  
  330.50  0.0000E+000  
  331.00  0.0000E+000  
  331.50  0.0000E+000  
  332.00  0.0000E+000  
  332.50  0.0000E+000  
  333.00  1.5241E-007  
  333.50  1.1606E-005  
  334.00  1.6403E-005  
  334.50  0.0000E+000  
  335.00  0.0000E+000  
  335.50  0.0000E+000  
  336.00  1.1102E-008  
  336.50  2.4646E-005  
  337.00  1.0010E-004  
  337.50  1.0909E-004  
  338.00  2.2959E-005  
  338.50  1.4336E-006  
  339.00  0.0000E+000  
  339.50  0.0000E+000  
  340.00  0.0000E+000  
  340.50  0.0000E+000  
  341.00  0.0000E+000  
  341.50  0.0000E+000  
  342.00  0.0000E+000  
  342.50  7.1237E-006  
  343.00  0.0000E+000  
  343.50  0.0000E+000  
  344.00  0.0000E+000  
  344.50  0.0000E+000  
  345.00  0.0000E+000  
  345.50  3.9710E-005  
  346.00  7.5579E-005  
  346.50  5.9852E-005  
  347.00  4.0771E-006  
  347.50  4.4097E-005  
  348.00  1.3272E-004  
  348.50  1.9037E-004  
  349.00  2.2175E-004  
  349.50  1.6594E-004  
  350.00  5.9788E-005  
  350.50  7.7630E-006  
  351.00  0.0000E+000  
  351.50  0.0000E+000  
  352.00  0.0000E+000  
  352.50  0.0000E+000  
  353.00  0.0000E+000  
  353.50  0.0000E+000  
  354.00  5.8399E-006  
  354.50  3.5936E-006  
  355.00  0.0000E+000  
  355.50  0.0000E+000  
  356.00  0.0000E+000  
  356.50  0.0000E+000  
  357.00  9.4687E-007  
  357.50  6.1195E-006  
  358.00  5.6918E-006  
  358.50  1.2028E-005  
  359.00  0.0000E+000  
  359.50  0.0000E+000  
  360.00  6.4461E-006  
  360.50  3.9351E-005  
  361.00  4.7691E-005  
  361.50  1.4477E-005  
  362.00  0.0000E+000  
  362.50  0.0000E+000  
  363.00  0.0000E+000  
  363.50  0.0000E+000  
  364.00  0.0000E+000  
  364.50  8.6184E-006  
  365.00  6.7567E-005  
  365.50  1.1657E-004  
  366.00  1.1612E-004  
  366.50  4.8810E-005  
  367.00  1.2208E-007  
  367.50  4.5092E-006  
  368.00  1.8790E-006  
  368.50  2.8214E-005  
  369.00  1.5011E-005  
  369.50  0.0000E+000  
  370.00  0.0000E+000  
  370.50  0.0000E+000  
  371.00  0.0000E+000  
  371.50  0.0000E+000  
  372.00  0.0000E+000  
  372.50  1.1885E-005  
  373.00  1.5916E-005  
  373.50  3.8296E-005  
  374.00  3.8391E-005  
  374.50  4.1593E-005  
  375.00  5.0091E-005  
  375.50  1.2449E-005  
  376.00  6.5604E-006  
  376.50  0.0000E+000  
  377.00  0.0000E+000  
  377.50  0.0000E+000  
  378.00  0.0000E+000  
  378.50  0.0000E+000  
  379.00  0.0000E+000  
  379.50  0.0000E+000  
  380.00  0.0000E+000  
  380.50  0.0000E+000  
  381.00  0.0000E+000  
  381.50  0.0000E+000  
  382.00  0.0000E+000  
  382.50  0.0000E+000  
  383.00  6.7019E-006  
  383.50  1.2286E-005  
  384.00  3.5886E-005  
  384.50  4.1008E-005  
  385.00  1.1285E-005  
  385.50  2.6101E-005  
  386.00  2.0757E-006  
  386.50  0.0000E+000  
  387.00  0.0000E+000  
  387.50  0.0000E+000  
  388.00  1.8872E-005  
  388.50  1.7046E-005  
  389.00  1.0387E-005  
  389.50  1.8541E-005  
  390.00  1.8617E-005  
  390.50  1.1463E-005  
  391.00  3.9658E-006  
  391.50  1.5022E-005  
  392.00  3.1263E-005  
  392.50  3.9571E-005  
  393.00  2.7669E-005  
  393.50  0.0000E+000  
  394.00  0.0000E+000  
  394.50  0.0000E+000  
  395.00  0.0000E+000  
  395.50  0.0000E+000  
  396.00  0.0000E+000  
  396.50  0.0000E+000  
  397.00  0.0000E+000  
  397.50  0.0000E+000  
  398.00  0.0000E+000  
  398.50  0.0000E+000  
  399.00  0.0000E+000  
  399.50  0.0000E+000  
  400.00  0.0000E+000  
  400.50  0.0000E+000  
  401.00  4.9875E-006  
  401.50  2.5196E-005  
  402.00  4.8669E-005  
  402.50  7.7525E-005  
  403.00  9.8355E-005  
  403.50  9.7617E-005  
  404.00  7.8891E-005  
  404.50  7.7805E-005  
  405.00  4.1952E-005  
  405.50  3.9306E-005  
  406.00  3.7075E-005  
  406.50  3.0068E-005  
  407.00  3.0659E-005  
  407.50  5.8751E-005  
  408.00  5.0870E-005  
  408.50  9.9472E-005  
  409.00  1.0443E-004  
  409.50  1.1984E-004  
  410.00  1.3138E-004  
  410.50  1.0689E-004  
  411.00  9.9677E-005  
  411.50  4.7859E-005  
  412.00  2.2923E-005  
  412.50  5.3281E-005  
  413.00  1.1164E-004  
  413.50  1.7070E-004  
  414.00  2.0279E-004  
  414.50  1.6238E-004  
  415.00  1.4782E-004  
  415.50  1.5656E-004  
  416.00  1.9908E-004  
  416.50  2.1038E-004  
  417.00  2.4213E-004  
  417.50  2.5470E-004  
  418.00  2.7444E-004  
  418.50  3.0183E-004  
  419.00  3.0919E-004  
  419.50  3.2985E-004  
  420.00  3.8420E-004  
  420.50  4.4039E-004  
  421.00  4.9815E-004  
  421.50  5.7478E-004  
  422.00  6.3757E-004  
  422.50  6.8223E-004  
  423.00  7.4407E-004  
  423.50  7.7530E-004  
  424.00  8.4039E-004  
  424.50  9.0276E-004  
  425.00  9.3627E-004  
  425.50  9.6180E-004  
  426.00  9.6722E-004  
  426.50  9.9080E-004  
  427.00  1.0034E-003  
  427.50  1.0204E-003  
  428.00  1.0500E-003  
  428.50  1.1596E-003  
  429.00  1.2328E-003  
  429.50  1.3447E-003  
  430.00  1.4002E-003  
  430.50  1.4012E-003  
  431.00  1.3982E-003  
  431.50  1.4019E-003  
  432.00  1.5141E-003  
  432.50  1.6732E-003  
  433.00  1.8102E-003  
  433.50  1.8872E-003  
  434.00  1.9422E-003  
  434.50  2.0154E-003  
  435.00  2.1154E-003  
  435.50  2.1724E-003  
  436.00  2.2497E-003  
  436.50  2.3664E-003  
  437.00  2.5511E-003  
  437.50  2.6923E-003  
  438.00  2.7483E-003  
  438.50  2.8264E-003  
  439.00  2.8961E-003  
  439.50  3.0582E-003  
  440.00  3.2390E-003  
  440.50  3.4044E-003  
  441.00  3.6200E-003  
  441.50  3.8513E-003  
  442.00  4.0683E-003  
  442.50  4.2703E-003  
  443.00  4.4441E-003  
  443.50  4.6192E-003  
  444.00  4.7665E-003  
  444.50  4.9515E-003  
  445.00  5.1674E-003  
  445.50  5.3892E-003  
  446.00  5.5944E-003  
  446.50  5.7102E-003  
  447.00  5.8038E-003  
  447.50  5.9352E-003  
  448.00  6.0678E-003  
  448.50  6.2161E-003  
  449.00  6.3470E-003  
  449.50  6.4216E-003  
  450.00  6.4416E-003  
  450.50  6.4114E-003  
  451.00  6.3825E-003  
  451.50  6.2717E-003  
  452.00  6.1793E-003  
  452.50  6.0293E-003  
  453.00  5.8989E-003  
  453.50  5.7972E-003  
  454.00  5.7003E-003  
  454.50  5.6015E-003  
  455.00  5.4902E-003  
  455.50  5.3505E-003  
  456.00  5.2442E-003  
  456.50  5.1449E-003  
  457.00  5.0431E-003  
  457.50  4.9147E-003  
  458.00  4.7444E-003  
  458.50  4.6065E-003  
  459.00  4.5130E-003  
  459.50  4.4426E-003  
  460.00  4.3994E-003  
  460.50  4.3349E-003  
  461.00  4.2392E-003  
  461.50  4.1567E-003  
  462.00  4.0804E-003  
  462.50  4.0451E-003  
  463.00  4.0314E-003  
  463.50  4.0481E-003  
  464.00  4.0668E-003  
  464.50  4.0870E-003  
  465.00  4.0807E-003  
  465.50  4.0173E-003  
  466.00  3.9384E-003  
  466.50  3.8594E-003  
  467.00  3.8049E-003  
  467.50  3.7700E-003  
  468.00  3.7464E-003  
  468.50  3.7278E-003  
  469.00  3.7168E-003  
  469.50  3.6924E-003  
  470.00  3.6198E-003  
  470.50  3.5345E-003  
  471.00  3.4996E-003  
  471.50  3.5072E-003  
  472.00  3.5171E-003  
  472.50  3.4881E-003  
  473.00  3.4288E-003  
  473.50  3.4198E-003  
  474.00  3.4117E-003  
  474.50  3.3968E-003  
  475.00  3.3727E-003  
  475.50  3.3393E-003  
  476.00  3.3388E-003  
  476.50  3.3190E-003  
  477.00  3.3276E-003  
  477.50  3.3218E-003  
  478.00  3.3404E-003  
  478.50  3.3737E-003  
  479.00  3.4241E-003  
  479.50  3.4849E-003  
  480.00  3.5058E-003  
  480.50  3.5071E-003  
  481.00  3.5146E-003  
  481.50  3.5266E-003  
  482.00  3.5437E-003  
  482.50  3.5888E-003  
  483.00  3.6135E-003  
  483.50  3.6966E-003  
  484.00  3.7754E-003  
  484.50  3.8203E-003  
  485.00  3.8493E-003  
  485.50  3.8642E-003  
  486.00  3.8620E-003  
  486.50  3.8773E-003  
  487.00  3.9013E-003  
  487.50  3.9507E-003  
  488.00  4.0410E-003  
  488.50  4.1276E-003  
  489.00  4.1931E-003  
  489.50  4.2507E-003  
  490.00  4.2954E-003  
  490.50  4.3456E-003  
  491.00  4.4020E-003  
  491.50  4.4569E-003  
  492.00  4.5623E-003  
  492.50  4.6786E-003  
  493.00  4.7795E-003  
  493.50  4.8579E-003  
  494.00  4.9245E-003  
  494.50  4.9858E-003  
  495.00  5.0368E-003  
  495.50  5.0640E-003  
  496.00  5.1039E-003  
  496.50  5.1691E-003  
  497.00  5.2659E-003  
  497.50  5.3458E-003  
  498.00  5.3892E-003  
  498.50  5.4642E-003  
  499.00  5.5414E-003  
  499.50  5.6430E-003  
  500.00  5.7302E-003  
  500.50  5.7528E-003  
  501.00  5.8074E-003  
  501.50  5.8763E-003  
  502.00  5.9701E-003  
  502.50  6.0600E-003  
  503.00  6.1305E-003  
  503.50  6.1818E-003  
  504.00  6.2492E-003  
  504.50  6.3240E-003  
  505.00  6.4109E-003  
  505.50  6.4958E-003  
  506.00  6.5580E-003  
  506.50  6.6068E-003  
  507.00  6.6663E-003  
  507.50  6.7397E-003  
  508.00  6.7812E-003  
  508.50  6.7986E-003  
  509.00  6.8263E-003  
  509.50  6.8737E-003  
  510.00  6.9926E-003  
  510.50  7.0825E-003  
  511.00  7.1519E-003  
  511.50  7.1856E-003  
  512.00  7.2116E-003  
  512.50  7.2440E-003  
  513.00  7.3048E-003  
  513.50  7.3605E-003  
  514.00  7.4557E-003  
  514.50  7.5389E-003  
  515.00  7.6252E-003  
  515.50  7.6981E-003  
  516.00  7.7685E-003  
  516.50  7.8226E-003  
  517.00  7.8903E-003  
  517.50  7.9297E-003  
  518.00  7.9473E-003  
  518.50  8.0008E-003  
  519.00  8.0505E-003  
  519.50  8.1367E-003  
  520.00  8.1924E-003  
  520.50  8.2591E-003  
  521.00  8.3157E-003  
  521.50  8.3795E-003  
  522.00  8.4544E-003  
  522.50  8.5168E-003  
  523.00  8.5888E-003  
  523.50  8.6380E-003  
  524.00  8.6976E-003  
  524.50  8.7650E-003  
  525.00  8.8352E-003  
  525.50  8.8755E-003  
  526.00  8.9103E-003  
  526.50  8.9721E-003  
  527.00  9.0335E-003  
  527.50  9.1298E-003  
  528.00  9.1826E-003  
  528.50  9.2420E-003  
  529.00  9.3025E-003  
  529.50  9.3331E-003  
  530.00  9.3976E-003  
  530.50  9.4833E-003  
  531.00  9.5632E-003  
  531.50  9.6130E-003  
  532.00  9.6244E-003  
  532.50  9.6702E-003  
  533.00  9.7598E-003  
  533.50  9.8577E-003  
  534.00  9.9552E-003  
  534.50  1.0005E-002  
  535.00  1.0067E-002  
  535.50  1.0123E-002  
  536.00  1.0186E-002  
  536.50  1.0234E-002  
  537.00  1.0305E-002  
  537.50  1.0400E-002  
  538.00  1.0525E-002  
  538.50  1.0609E-002  
  539.00  1.0712E-002  
  539.50  1.0786E-002  
  540.00  1.0876E-002  
  540.50  1.0956E-002  
  541.00  1.0986E-002  
  541.50  1.1051E-002  
  542.00  1.1135E-002  
  542.50  1.1233E-002  
  543.00  1.1335E-002  
  543.50  1.1398E-002  
  544.00  1.1482E-002  
  544.50  1.1574E-002  
  545.00  1.1674E-002  
  545.50  1.1772E-002  
  546.00  1.1865E-002  
  546.50  1.1953E-002  
  547.00  1.2009E-002  
  547.50  1.2082E-002  
  548.00  1.2148E-002  
  548.50  1.2212E-002  
  549.00  1.2269E-002  
  549.50  1.2321E-002  
  550.00  1.2401E-002  
  550.50  1.2526E-002  
  551.00  1.2658E-002  
  551.50  1.2745E-002  
  552.00  1.2826E-002  
  552.50  1.2887E-002  
  553.00  1.3032E-002  
  553.50  1.3185E-002  
  554.00  1.3353E-002  
  554.50  1.3435E-002  
  555.00  1.3502E-002  
  555.50  1.3537E-002  
  556.00  1.3624E-002  
  556.50  1.3765E-002  
  557.00  1.3920E-002  
  557.50  1.4070E-002  
  558.00  1.4192E-002  
  558.50  1.4305E-002  
  559.00  1.4410E-002  
  559.50  1.4512E-002  
  560.00  1.4610E-002  
  560.50  1.4685E-002  
  561.00  1.4765E-002  
  561.50  1.4836E-002  
  562.00  1.4937E-002  
  562.50  1.5046E-002  
  563.00  1.5167E-002  
  563.50  1.5293E-002  
  564.00  1.5416E-002  
  564.50  1.5513E-002  
  565.00  1.5629E-002  
  565.50  1.5743E-002  
  566.00  1.5862E-002  
  566.50  1.5961E-002  
  567.00  1.6054E-002  
  567.50  1.6150E-002  
  568.00  1.6291E-002  
  568.50  1.6400E-002  
  569.00  1.6561E-002  
  569.50  1.6678E-002  
  570.00  1.6808E-002  
  570.50  1.6947E-002  
  571.00  1.7126E-002  
  571.50  1.7266E-002  
  572.00  1.7394E-002  
  572.50  1.7475E-002  
  573.00  1.7564E-002  
  573.50  1.7649E-002  
  574.00  1.7779E-002  
  574.50  1.7910E-002  
  575.00  1.8027E-002  
  575.50  1.8139E-002  
  576.00  1.8274E-002  
  576.50  1.8443E-002  
  577.00  1.8648E-002  
  577.50  1.8794E-002  
  578.00  1.8900E-002  
  578.50  1.8898E-002  
  579.00  1.9014E-002  
  579.50  1.9211E-002  
  580.00  1.9419E-002  
  580.50  1.9550E-002  
  581.00  1.9630E-002  
  581.50  1.9720E-002  
  582.00  1.9868E-002  
  582.50  2.0041E-002  
  583.00  2.0191E-002  
  583.50  2.0338E-002  
  584.00  2.0404E-002  
  584.50  2.0494E-002  
  585.00  2.0573E-002  
  585.50  2.0704E-002  
  586.00  2.0859E-002  
  586.50  2.0990E-002  
  587.00  2.1084E-002  
  587.50  2.1131E-002  
  588.00  2.1203E-002  
  588.50  2.1330E-002  
  589.00  2.1405E-002  
  589.50  2.1508E-002  
  590.00  2.1661E-002  
  590.50  2.1834E-002  
  591.00  2.1991E-002  
  591.50  2.2053E-002  
  592.00  2.2130E-002  
  592.50  2.2217E-002  
  593.00  2.2314E-002  
  593.50  2.2322E-002  
  594.00  2.2348E-002  
  594.50  2.2348E-002  
  595.00  2.2456E-002  
  595.50  2.2541E-002  
  596.00  2.2654E-002  
  596.50  2.2718E-002  
  597.00  2.2796E-002  
  597.50  2.2813E-002  
  598.00  2.2826E-002  
  598.50  2.2848E-002  
  599.00  2.2918E-002  
  599.50  2.3004E-002  
  600.00  2.3130E-002  
  600.50  2.3213E-002  
  601.00  2.3225E-002  
  601.50  2.3173E-002  
  602.00  2.3101E-002  
  602.50  2.3154E-002  
  603.00  2.3186E-002  
  603.50  2.3258E-002  
  604.00  2.3339E-002  
  604.50  2.3400E-002  
  605.00  2.3379E-002  
  605.50  2.3296E-002  
  606.00  2.3194E-002  
  606.50  2.3189E-002  
  607.00  2.3186E-002  
  607.50  2.3173E-002  
  608.00  2.3194E-002  
  608.50  2.3220E-002  
  609.00  2.3299E-002  
  609.50  2.3308E-002  
  610.00  2.3228E-002  
  610.50  2.3116E-002  
  611.00  2.3025E-002  
  611.50  2.2988E-002  
  612.00  2.2940E-002  
  612.50  2.2888E-002  
  613.00  2.2884E-002  
  613.50  2.2884E-002  
  614.00  2.2855E-002  
  614.50  2.2821E-002  
  615.00  2.2769E-002  
  615.50  2.2712E-002  
  616.00  2.2543E-002  
  616.50  2.2417E-002  
  617.00  2.2361E-002  
  617.50  2.2354E-002  
  618.00  2.2304E-002  
  618.50  2.2148E-002  
  619.00  2.1971E-002  
  619.50  2.1818E-002  
  620.00  2.1727E-002  
  620.50  2.1646E-002  
  621.00  2.1537E-002  
  621.50  2.1459E-002  
  622.00  2.1434E-002  
  622.50  2.1374E-002  
  623.00  2.1267E-002  
  623.50  2.1107E-002  
  624.00  2.0965E-002  
  624.50  2.0812E-002  
  625.00  2.0665E-002  
  625.50  2.0656E-002  
  626.00  2.0582E-002  
  626.50  2.0485E-002  
  627.00  2.0306E-002  
  627.50  2.0189E-002  
  628.00  2.0078E-002  
  628.50  1.9933E-002  
  629.00  1.9802E-002  
  629.50  1.9660E-002  
  630.00  1.9515E-002  
  630.50  1.9340E-002  
  631.00  1.9132E-002  
  631.50  1.8962E-002  
  632.00  1.8775E-002  
  632.50  1.8665E-002  
  633.00  1.8590E-002  
  633.50  1.8499E-002  
  634.00  1.8433E-002  
  634.50  1.8301E-002  
  635.00  1.8184E-002  
  635.50  1.7955E-002  
  636.00  1.7781E-002  
  636.50  1.7597E-002  
  637.00  1.7437E-002  
  637.50  1.7258E-002  
  638.00  1.7092E-002  
  638.50  1.7001E-002  
  639.00  1.6892E-002  
  639.50  1.6768E-002  
  640.00  1.6662E-002  
  640.50  1.6515E-002  
  641.00  1.6366E-002  
  641.50  1.6206E-002  
  642.00  1.6056E-002  
  642.50  1.5909E-002  
  643.00  1.5702E-002  
  643.50  1.5551E-002  
  644.00  1.5346E-002  
  644.50  1.5130E-002  
  645.00  1.4895E-002  
  645.50  1.4697E-002  
  646.00  1.4556E-002  
  646.50  1.4419E-002  
  647.00  1.4282E-002  
  647.50  1.4180E-002  
  648.00  1.4061E-002  
  648.50  1.3925E-002  
  649.00  1.3762E-002  
  649.50  1.3560E-002  
  650.00  1.3430E-002  
  650.50  1.3252E-002  
  651.00  1.3122E-002  
  651.50  1.2974E-002  
  652.00  1.2853E-002  
  652.50  1.2718E-002  
  653.00  1.2577E-002  
  653.50  1.2374E-002  
  654.00  1.2172E-002  
  654.50  1.2001E-002  
  655.00  1.1910E-002  
  655.50  1.1847E-002  
  656.00  1.1714E-002  
  656.50  1.1583E-002  
  657.00  1.1471E-002  
  657.50  1.1364E-002  
  658.00  1.1220E-002  
  658.50  1.1017E-002  
  659.00  1.0863E-002  
  659.50  1.0746E-002  
  660.00  1.0627E-002  
  660.50  1.0467E-002  
  661.00  1.0330E-002  
  661.50  1.0195E-002  
  662.00  1.0043E-002  
  662.50  9.8132E-003  
  663.00  9.6574E-003  
  663.50  9.5729E-003  
  664.00  9.5038E-003  
  664.50  9.3482E-003  
  665.00  9.1758E-003  
  665.50  9.0207E-003  
  666.00  8.9072E-003  
  666.50  8.8216E-003  
  667.00  8.7665E-003  
  667.50  8.7786E-003  
  668.00  8.6958E-003  
  668.50  8.5979E-003  
  669.00  8.4324E-003  
  669.50  8.2989E-003  
  670.00  8.1119E-003  
  670.50  7.9677E-003  
  671.00  7.8116E-003  
  671.50  7.6753E-003  
  672.00  7.5105E-003  
  672.50  7.4352E-003  
  673.00  7.3771E-003  
  673.50  7.2961E-003  
  674.00  7.1781E-003  
  674.50  7.0353E-003  
  675.00  6.9016E-003  
  675.50  6.7986E-003  
  676.00  6.7296E-003  
  676.50  6.6388E-003  
  677.00  6.5586E-003  
  677.50  6.4776E-003  
  678.00  6.4237E-003  
  678.50  6.3543E-003  
  679.00  6.2815E-003  
  679.50  6.1946E-003  
  680.00  6.0661E-003  
