
# From lspdd.org
# 
# Name: INC Globe A19 Domestique
# Indice spectral Valeur 
# MSI 0.24 
# SLI 0.46 
# IPI 1.00 
# Pourcentage de bleu 9.9 
# Caractéristique Valeur 
# CCT calculée (K) 2417 
# CCT du fabricant (K) 2422 
# Tension (V) 120 
# Puissance (W) 40.0 
# Efficacité lumineuse (Lum/W) 8.1 
#
# Image: '/app/system/img_2s/2550/medium_image2.jpg?1413486259'
# Image: '/app/system/img_1s/2550/medium_image1.JPG?1413486260'
# 

  273.00  0.0000E+000  
  273.50  0.0000E+000  
  274.00  0.0000E+000  
  274.50  0.0000E+000  
  275.00  0.0000E+000  
  275.50  0.0000E+000  
  276.00  0.0000E+000  
  276.50  0.0000E+000  
  277.00  0.0000E+000  
  277.50  0.0000E+000  
  278.00  0.0000E+000  
  278.50  0.0000E+000  
  279.00  0.0000E+000  
  279.50  0.0000E+000  
  280.00  0.0000E+000  
  280.50  0.0000E+000  
  281.00  0.0000E+000  
  281.50  0.0000E+000  
  282.00  0.0000E+000  
  282.50  0.0000E+000  
  283.00  0.0000E+000  
  283.50  0.0000E+000  
  284.00  0.0000E+000  
  284.50  0.0000E+000  
  285.00  0.0000E+000  
  285.50  0.0000E+000  
  286.00  0.0000E+000  
  286.50  0.0000E+000  
  287.00  0.0000E+000  
  287.50  0.0000E+000  
  288.00  0.0000E+000  
  288.50  0.0000E+000  
  289.00  0.0000E+000  
  289.50  0.0000E+000  
  290.00  0.0000E+000  
  290.50  0.0000E+000  
  291.00  0.0000E+000  
  291.50  0.0000E+000  
  292.00  0.0000E+000  
  292.50  0.0000E+000  
  293.00  0.0000E+000  
  293.50  0.0000E+000  
  294.00  0.0000E+000  
  294.50  0.0000E+000  
  295.00  0.0000E+000  
  295.50  0.0000E+000  
  296.00  0.0000E+000  
  296.50  0.0000E+000  
  297.00  0.0000E+000  
  297.50  0.0000E+000  
  298.00  0.0000E+000  
  298.50  0.0000E+000  
  299.00  0.0000E+000  
  299.50  0.0000E+000  
  300.00  0.0000E+000  
  300.50  0.0000E+000  
  301.00  0.0000E+000  
  301.50  0.0000E+000  
  302.00  0.0000E+000  
  302.50  0.0000E+000  
  303.00  0.0000E+000  
  303.50  0.0000E+000  
  304.00  0.0000E+000  
  304.50  2.0626E-007  
  305.00  1.3186E-006  
  305.50  0.0000E+000  
  306.00  0.0000E+000  
  306.50  0.0000E+000  
  307.00  1.5099E-006  
  307.50  5.6618E-005  
  308.00  5.1054E-005  
  308.50  5.6775E-005  
  309.00  1.0069E-004  
  309.50  9.1666E-005  
  310.00  6.2967E-005  
  310.50  2.7453E-005  
  311.00  0.0000E+000  
  311.50  0.0000E+000  
  312.00  0.0000E+000  
  312.50  0.0000E+000  
  313.00  0.0000E+000  
  313.50  0.0000E+000  
  314.00  1.6896E-005  
  314.50  0.0000E+000  
  315.00  0.0000E+000  
  315.50  0.0000E+000  
  316.00  0.0000E+000  
  316.50  0.0000E+000  
  317.00  0.0000E+000  
  317.50  0.0000E+000  
  318.00  0.0000E+000  
  318.50  0.0000E+000  
  319.00  4.2855E-005  
  319.50  5.9239E-005  
  320.00  3.9658E-005  
  320.50  3.6410E-006  
  321.00  1.9431E-005  
  321.50  2.8651E-005  
  322.00  1.5922E-005  
  322.50  4.0994E-005  
  323.00  4.5743E-005  
  323.50  3.1685E-005  
  324.00  1.3857E-005  
  324.50  3.1844E-006  
  325.00  0.0000E+000  
  325.50  5.0676E-006  
  326.00  0.0000E+000  
  326.50  0.0000E+000  
  327.00  0.0000E+000  
  327.50  0.0000E+000  
  328.00  2.6984E-005  
  328.50  8.1305E-005  
  329.00  7.6057E-005  
  329.50  5.1346E-005  
  330.00  0.0000E+000  
  330.50  0.0000E+000  
  331.00  0.0000E+000  
  331.50  0.0000E+000  
  332.00  1.8574E-005  
  332.50  6.8969E-005  
  333.00  6.8211E-005  
  333.50  7.3951E-005  
  334.00  5.9654E-005  
  334.50  4.6228E-007  
  335.00  1.9834E-005  
  335.50  4.2785E-005  
  336.00  6.1509E-005  
  336.50  5.7116E-005  
  337.00  4.7984E-005  
  337.50  5.2323E-005  
  338.00  5.4246E-005  
  338.50  2.7217E-005  
  339.00  2.9956E-005  
  339.50  1.8390E-006  
  340.00  0.0000E+000  
  340.50  1.5215E-005  
  341.00  3.8123E-006  
  341.50  5.1210E-005  
  342.00  8.1073E-005  
  342.50  5.2136E-005  
  343.00  6.0373E-005  
  343.50  5.5661E-005  
  344.00  6.5703E-005  
  344.50  9.8479E-005  
  345.00  1.0390E-004  
  345.50  7.9478E-005  
  346.00  7.7538E-005  
  346.50  6.3473E-005  
  347.00  1.2935E-005  
  347.50  2.6858E-005  
  348.00  6.2610E-005  
  348.50  9.1138E-005  
  349.00  1.0242E-004  
  349.50  7.8185E-005  
  350.00  5.2299E-005  
  350.50  8.5980E-005  
  351.00  1.2905E-004  
  351.50  1.4983E-004  
  352.00  1.6687E-004  
  352.50  1.7284E-004  
  353.00  2.1387E-004  
  353.50  1.8505E-004  
  354.00  1.4129E-004  
  354.50  8.1466E-005  
  355.00  3.0555E-005  
  355.50  6.8480E-005  
  356.00  9.2025E-005  
  356.50  1.1757E-004  
  357.00  1.1744E-004  
  357.50  1.1446E-004  
  358.00  1.5146E-004  
  358.50  1.6633E-004  
  359.00  1.9948E-004  
  359.50  1.5423E-004  
  360.00  1.0201E-004  
  360.50  9.8586E-005  
  361.00  1.2300E-004  
  361.50  1.9054E-004  
  362.00  2.1576E-004  
  362.50  1.8382E-004  
  363.00  1.7711E-004  
  363.50  1.6083E-004  
  364.00  2.0671E-004  
  364.50  2.7605E-004  
  365.00  2.9855E-004  
  365.50  3.3883E-004  
  366.00  2.9150E-004  
  366.50  2.3789E-004  
  367.00  1.8738E-004  
  367.50  1.4118E-004  
  368.00  1.2705E-004  
  368.50  1.4045E-004  
  369.00  1.7769E-004  
  369.50  2.3853E-004  
  370.00  2.8653E-004  
  370.50  2.8279E-004  
  371.00  2.9056E-004  
  371.50  2.3996E-004  
  372.00  2.4051E-004  
  372.50  2.5370E-004  
  373.00  2.6341E-004  
  373.50  3.2123E-004  
  374.00  3.2058E-004  
  374.50  3.2812E-004  
  375.00  3.0161E-004  
  375.50  3.0243E-004  
  376.00  3.4037E-004  
  376.50  3.9263E-004  
  377.00  4.4149E-004  
  377.50  4.2412E-004  
  378.00  3.8285E-004  
  378.50  3.4294E-004  
  379.00  3.2531E-004  
  379.50  3.9970E-004  
  380.00  4.6616E-004  
  380.50  4.7265E-004  
  381.00  4.5743E-004  
  381.50  4.0438E-004  
  382.00  3.7823E-004  
  382.50  3.7165E-004  
  383.00  3.3209E-004  
  383.50  3.4935E-004  
  384.00  3.4507E-004  
  384.50  3.5114E-004  
  385.00  3.5991E-004  
  385.50  3.5244E-004  
  386.00  3.9993E-004  
  386.50  4.5126E-004  
  387.00  4.1055E-004  
  387.50  3.5879E-004  
  388.00  3.4166E-004  
  388.50  3.6878E-004  
  389.00  4.4720E-004  
  389.50  5.0710E-004  
  390.00  5.7359E-004  
  390.50  6.0278E-004  
  391.00  5.9491E-004  
  391.50  5.5874E-004  
  392.00  4.9748E-004  
  392.50  5.0539E-004  
  393.00  5.3176E-004  
  393.50  5.4317E-004  
  394.00  5.3200E-004  
  394.50  4.7870E-004  
  395.00  5.0219E-004  
  395.50  5.4097E-004  
  396.00  5.9879E-004  
  396.50  6.5664E-004  
  397.00  6.3695E-004  
  397.50  6.1900E-004  
  398.00  6.3375E-004  
  398.50  6.2519E-004  
  399.00  6.3868E-004  
  399.50  6.1304E-004  
  400.00  5.7016E-004  
  400.50  5.5278E-004  
  401.00  5.6296E-004  
  401.50  5.9059E-004  
  402.00  6.5195E-004  
  402.50  7.0584E-004  
  403.00  7.1037E-004  
  403.50  6.8025E-004  
  404.00  6.7383E-004  
  404.50  7.4044E-004  
  405.00  8.0383E-004  
  405.50  8.9814E-004  
  406.00  8.8416E-004  
  406.50  8.0681E-004  
  407.00  7.8646E-004  
  407.50  7.4891E-004  
  408.00  7.6159E-004  
  408.50  7.7994E-004  
  409.00  7.8863E-004  
  409.50  8.0397E-004  
  410.00  8.1297E-004  
  410.50  7.9198E-004  
  411.00  7.9597E-004  
  411.50  8.0575E-004  
  412.00  8.1272E-004  
  412.50  8.5893E-004  
  413.00  8.4998E-004  
  413.50  8.3890E-004  
  414.00  8.2468E-004  
  414.50  8.3071E-004  
  415.00  8.9309E-004  
  415.50  9.6966E-004  
  416.00  1.0316E-003  
  416.50  1.0590E-003  
  417.00  1.0565E-003  
  417.50  1.0422E-003  
  418.00  1.0315E-003  
  418.50  1.0045E-003  
  419.00  1.0048E-003  
  419.50  1.0396E-003  
  420.00  1.0584E-003  
  420.50  1.0728E-003  
  421.00  1.0125E-003  
  421.50  9.5373E-004  
  422.00  9.5931E-004  
  422.50  9.8443E-004  
  423.00  1.0273E-003  
  423.50  1.0766E-003  
  424.00  1.1055E-003  
  424.50  1.1201E-003  
  425.00  1.1494E-003  
  425.50  1.1630E-003  
  426.00  1.2085E-003  
  426.50  1.2372E-003  
  427.00  1.2210E-003  
  427.50  1.1772E-003  
  428.00  1.1639E-003  
  428.50  1.1517E-003  
  429.00  1.2145E-003  
  429.50  1.2335E-003  
  430.00  1.2315E-003  
  430.50  1.2631E-003  
  431.00  1.3117E-003  
  431.50  1.3657E-003  
  432.00  1.4038E-003  
  432.50  1.4115E-003  
  433.00  1.3949E-003  
  433.50  1.4101E-003  
  434.00  1.4361E-003  
  434.50  1.4035E-003  
  435.00  1.4034E-003  
  435.50  1.4074E-003  
  436.00  1.4057E-003  
  436.50  1.4194E-003  
  437.00  1.4020E-003  
  437.50  1.4243E-003  
  438.00  1.5016E-003  
  438.50  1.5519E-003  
  439.00  1.5526E-003  
  439.50  1.5106E-003  
  440.00  1.4992E-003  
  440.50  1.5084E-003  
  441.00  1.5626E-003  
  441.50  1.5731E-003  
  442.00  1.5164E-003  
  442.50  1.5130E-003  
  443.00  1.5169E-003  
  443.50  1.5618E-003  
  444.00  1.6523E-003  
  444.50  1.6929E-003  
  445.00  1.7304E-003  
  445.50  1.7424E-003  
  446.00  1.7554E-003  
  446.50  1.7523E-003  
  447.00  1.7707E-003  
  447.50  1.8036E-003  
  448.00  1.8359E-003  
  448.50  1.8333E-003  
  449.00  1.7954E-003  
  449.50  1.7615E-003  
  450.00  1.7495E-003  
  450.50  1.8150E-003  
  451.00  1.8365E-003  
  451.50  1.8674E-003  
  452.00  1.8963E-003  
  452.50  1.9387E-003  
  453.00  2.0142E-003  
  453.50  2.0597E-003  
  454.00  2.0914E-003  
  454.50  2.0759E-003  
  455.00  2.0151E-003  
  455.50  1.9586E-003  
  456.00  1.9378E-003  
  456.50  1.9732E-003  
  457.00  2.0231E-003  
  457.50  2.1146E-003  
  458.00  2.1969E-003  
  458.50  2.2729E-003  
  459.00  2.2897E-003  
  459.50  2.2548E-003  
  460.00  2.2342E-003  
  460.50  2.2070E-003  
  461.00  2.2269E-003  
  461.50  2.2448E-003  
  462.00  2.2530E-003  
  462.50  2.3128E-003  
  463.00  2.3772E-003  
  463.50  2.4443E-003  
  464.00  2.5571E-003  
  464.50  2.5832E-003  
  465.00  2.5770E-003  
  465.50  2.5551E-003  
  466.00  2.4705E-003  
  466.50  2.4789E-003  
  467.00  2.4458E-003  
  467.50  2.4083E-003  
  468.00  2.4177E-003  
  468.50  2.4478E-003  
  469.00  2.5042E-003  
  469.50  2.5330E-003  
  470.00  2.5335E-003  
  470.50  2.5400E-003  
  471.00  2.5648E-003  
  471.50  2.6154E-003  
  472.00  2.6447E-003  
  472.50  2.6902E-003  
  473.00  2.7499E-003  
  473.50  2.7800E-003  
  474.00  2.7967E-003  
  474.50  2.8145E-003  
  475.00  2.8447E-003  
  475.50  2.9017E-003  
  476.00  2.9342E-003  
  476.50  2.9326E-003  
  477.00  2.9375E-003  
  477.50  2.9313E-003  
  478.00  2.9592E-003  
  478.50  2.9995E-003  
  479.00  3.0404E-003  
  479.50  3.1015E-003  
  480.00  3.2002E-003  
  480.50  3.2363E-003  
  481.00  3.2548E-003  
  481.50  3.2211E-003  
  482.00  3.1925E-003  
  482.50  3.2034E-003  
  483.00  3.1948E-003  
  483.50  3.2122E-003  
  484.00  3.2416E-003  
  484.50  3.2562E-003  
  485.00  3.2696E-003  
  485.50  3.2920E-003  
  486.00  3.3159E-003  
  486.50  3.3684E-003  
  487.00  3.3992E-003  
  487.50  3.4134E-003  
  488.00  3.4539E-003  
  488.50  3.5143E-003  
  489.00  3.5900E-003  
  489.50  3.6170E-003  
  490.00  3.6011E-003  
  490.50  3.5819E-003  
  491.00  3.6261E-003  
  491.50  3.6832E-003  
  492.00  3.7237E-003  
  492.50  3.7337E-003  
  493.00  3.7432E-003  
  493.50  3.7815E-003  
  494.00  3.8409E-003  
  494.50  3.8924E-003  
  495.00  3.9330E-003  
  495.50  3.9429E-003  
  496.00  3.9379E-003  
  496.50  3.9695E-003  
  497.00  4.0059E-003  
  497.50  4.0527E-003  
  498.00  4.0823E-003  
  498.50  4.0953E-003  
  499.00  4.0992E-003  
  499.50  4.1052E-003  
  500.00  4.1017E-003  
  500.50  4.1324E-003  
  501.00  4.1915E-003  
  501.50  4.2759E-003  
  502.00  4.3648E-003  
  502.50  4.3961E-003  
  503.00  4.3990E-003  
  503.50  4.3948E-003  
  504.00  4.4378E-003  
  504.50  4.5131E-003  
  505.00  4.5532E-003  
  505.50  4.5936E-003  
  506.00  4.5894E-003  
  506.50  4.6177E-003  
  507.00  4.6496E-003  
  507.50  4.7186E-003  
  508.00  4.8033E-003  
  508.50  4.8707E-003  
  509.00  4.9100E-003  
  509.50  4.9285E-003  
  510.00  4.9492E-003  
  510.50  4.9763E-003  
  511.00  4.9898E-003  
  511.50  5.0210E-003  
  512.00  5.0711E-003  
  512.50  5.1265E-003  
  513.00  5.1703E-003  
  513.50  5.2279E-003  
  514.00  5.2656E-003  
  514.50  5.3399E-003  
  515.00  5.3701E-003  
  515.50  5.4022E-003  
  516.00  5.4528E-003  
  516.50  5.5199E-003  
  517.00  5.6082E-003  
  517.50  5.6426E-003  
  518.00  5.6678E-003  
  518.50  5.6766E-003  
  519.00  5.7068E-003  
  519.50  5.7383E-003  
  520.00  5.7934E-003  
  520.50  5.8517E-003  
  521.00  5.9233E-003  
  521.50  5.9709E-003  
  522.00  6.0054E-003  
  522.50  6.0538E-003  
  523.00  6.1076E-003  
  523.50  6.1573E-003  
  524.00  6.2211E-003  
  524.50  6.2585E-003  
  525.00  6.2886E-003  
  525.50  6.3344E-003  
  526.00  6.3902E-003  
  526.50  6.4654E-003  
  527.00  6.5233E-003  
  527.50  6.5704E-003  
  528.00  6.6430E-003  
  528.50  6.7293E-003  
  529.00  6.7900E-003  
  529.50  6.8129E-003  
  530.00  6.8390E-003  
  530.50  6.8693E-003  
  531.00  6.9266E-003  
  531.50  6.9979E-003  
  532.00  7.0497E-003  
  532.50  7.0956E-003  
  533.00  7.1343E-003  
  533.50  7.1582E-003  
  534.00  7.2138E-003  
  534.50  7.2790E-003  
  535.00  7.3413E-003  
  535.50  7.4016E-003  
  536.00  7.4523E-003  
  536.50  7.4773E-003  
  537.00  7.5321E-003  
  537.50  7.6027E-003  
  538.00  7.6859E-003  
  538.50  7.8104E-003  
  539.00  7.8570E-003  
  539.50  7.8745E-003  
  540.00  7.8587E-003  
  540.50  7.8598E-003  
  541.00  7.8984E-003  
  541.50  7.9602E-003  
  542.00  8.0220E-003  
  542.50  8.1002E-003  
  543.00  8.1701E-003  
  543.50  8.2296E-003  
  544.00  8.3105E-003  
  544.50  8.3837E-003  
  545.00  8.4506E-003  
  545.50  8.4750E-003  
  546.00  8.4961E-003  
  546.50  8.5704E-003  
  547.00  8.6174E-003  
  547.50  8.6618E-003  
  548.00  8.6890E-003  
  548.50  8.7457E-003  
  549.00  8.8341E-003  
  549.50  8.8887E-003  
  550.00  8.9290E-003  
  550.50  8.9891E-003  
  551.00  9.0637E-003  
  551.50  9.1551E-003  
  552.00  9.2245E-003  
  552.50  9.2671E-003  
  553.00  9.3316E-003  
  553.50  9.4047E-003  
  554.00  9.5020E-003  
  554.50  9.5464E-003  
  555.00  9.5797E-003  
  555.50  9.6680E-003  
  556.00  9.7410E-003  
  556.50  9.8050E-003  
  557.00  9.7948E-003  
  557.50  9.8436E-003  
  558.00  9.8889E-003  
  558.50  9.9086E-003  
  559.00  9.9102E-003  
  559.50  9.9385E-003  
  560.00  1.0057E-002  
  560.50  1.0174E-002  
  561.00  1.0247E-002  
  561.50  1.0274E-002  
  562.00  1.0299E-002  
  562.50  1.0364E-002  
  563.00  1.0441E-002  
  563.50  1.0500E-002  
  564.00  1.0531E-002  
  564.50  1.0573E-002  
  565.00  1.0640E-002  
  565.50  1.0717E-002  
  566.00  1.0797E-002  
  566.50  1.0867E-002  
  567.00  1.0913E-002  
  567.50  1.0924E-002  
  568.00  1.0957E-002  
  568.50  1.1037E-002  
  569.00  1.1099E-002  
  569.50  1.1166E-002  
  570.00  1.1214E-002  
  570.50  1.1265E-002  
  571.00  1.1308E-002  
  571.50  1.1329E-002  
  572.00  1.1362E-002  
  572.50  1.1398E-002  
  573.00  1.1472E-002  
  573.50  1.1564E-002  
  574.00  1.1660E-002  
  574.50  1.1749E-002  
  575.00  1.1784E-002  
  575.50  1.1816E-002  
  576.00  1.1836E-002  
  576.50  1.1892E-002  
  577.00  1.1955E-002  
  577.50  1.2020E-002  
  578.00  1.2085E-002  
  578.50  1.2196E-002  
  579.00  1.2236E-002  
  579.50  1.2278E-002  
  580.00  1.2281E-002  
  580.50  1.2382E-002  
  581.00  1.2469E-002  
  581.50  1.2539E-002  
  582.00  1.2561E-002  
  582.50  1.2601E-002  
  583.00  1.2630E-002  
  583.50  1.2667E-002  
  584.00  1.2661E-002  
  584.50  1.2695E-002  
  585.00  1.2715E-002  
  585.50  1.2773E-002  
  586.00  1.2845E-002  
  586.50  1.2880E-002  
  587.00  1.2925E-002  
  587.50  1.2971E-002  
  588.00  1.3030E-002  
  588.50  1.3077E-002  
  589.00  1.3128E-002  
  589.50  1.3211E-002  
  590.00  1.3331E-002  
  590.50  1.3431E-002  
  591.00  1.3519E-002  
  591.50  1.3530E-002  
  592.00  1.3495E-002  
  592.50  1.3505E-002  
  593.00  1.3539E-002  
  593.50  1.3640E-002  
  594.00  1.3734E-002  
  594.50  1.3810E-002  
  595.00  1.3870E-002  
  595.50  1.3898E-002  
  596.00  1.3912E-002  
  596.50  1.3920E-002  
  597.00  1.3916E-002  
  597.50  1.3968E-002  
  598.00  1.4062E-002  
  598.50  1.4115E-002  
  599.00  1.4168E-002  
  599.50  1.4178E-002  
  600.00  1.4280E-002  
  600.50  1.4359E-002  
  601.00  1.4397E-002  
  601.50  1.4399E-002  
  602.00  1.4435E-002  
  602.50  1.4508E-002  
  603.00  1.4549E-002  
  603.50  1.4563E-002  
  604.00  1.4581E-002  
  604.50  1.4618E-002  
  605.00  1.4676E-002  
  605.50  1.4741E-002  
  606.00  1.4820E-002  
  606.50  1.4889E-002  
  607.00  1.4981E-002  
  607.50  1.5026E-002  
  608.00  1.5069E-002  
  608.50  1.5091E-002  
  609.00  1.5134E-002  
  609.50  1.5200E-002  
  610.00  1.5211E-002  
  610.50  1.5219E-002  
  611.00  1.5279E-002  
  611.50  1.5336E-002  
  612.00  1.5383E-002  
  612.50  1.5407E-002  
  613.00  1.5408E-002  
  613.50  1.5453E-002  
  614.00  1.5556E-002  
  614.50  1.5652E-002  
  615.00  1.5754E-002  
  615.50  1.5769E-002  
  616.00  1.5826E-002  
  616.50  1.5828E-002  
  617.00  1.5854E-002  
  617.50  1.5847E-002  
  618.00  1.5933E-002  
  618.50  1.5946E-002  
  619.00  1.5967E-002  
  619.50  1.5969E-002  
  620.00  1.6043E-002  
  620.50  1.6120E-002  
  621.00  1.6174E-002  
  621.50  1.6181E-002  
  622.00  1.6165E-002  
  622.50  1.6113E-002  
  623.00  1.6159E-002  
  623.50  1.6252E-002  
  624.00  1.6381E-002  
  624.50  1.6414E-002  
  625.00  1.6429E-002  
  625.50  1.6428E-002  
  626.00  1.6448E-002  
  626.50  1.6460E-002  
  627.00  1.6583E-002  
  627.50  1.6727E-002  
  628.00  1.6869E-002  
  628.50  1.6917E-002  
  629.00  1.6947E-002  
  629.50  1.6946E-002  
  630.00  1.6971E-002  
  630.50  1.6940E-002  
  631.00  1.6905E-002  
  631.50  1.6950E-002  
  632.00  1.7015E-002  
  632.50  1.7059E-002  
  633.00  1.7093E-002  
  633.50  1.7163E-002  
  634.00  1.7252E-002  
  634.50  1.7263E-002  
  635.00  1.7310E-002  
  635.50  1.7359E-002  
  636.00  1.7414E-002  
  636.50  1.7415E-002  
  637.00  1.7486E-002  
  637.50  1.7579E-002  
  638.00  1.7642E-002  
  638.50  1.7649E-002  
  639.00  1.7599E-002  
  639.50  1.7585E-002  
  640.00  1.7645E-002  
  640.50  1.7743E-002  
  641.00  1.7817E-002  
  641.50  1.7855E-002  
  642.00  1.7963E-002  
  642.50  1.8066E-002  
  643.00  1.8132E-002  
  643.50  1.8109E-002  
  644.00  1.8080E-002  
  644.50  1.8067E-002  
  645.00  1.8140E-002  
  645.50  1.8188E-002  
  646.00  1.8216E-002  
  646.50  1.8230E-002  
  647.00  1.8302E-002  
  647.50  1.8372E-002  
  648.00  1.8421E-002  
  648.50  1.8390E-002  
  649.00  1.8377E-002  
  649.50  1.8428E-002  
  650.00  1.8575E-002  
  650.50  1.8712E-002  
  651.00  1.8708E-002  
  651.50  1.8660E-002  
  652.00  1.8636E-002  
  652.50  1.8749E-002  
  653.00  1.8830E-002  
  653.50  1.8916E-002  
  654.00  1.8908E-002  
  654.50  1.8940E-002  
  655.00  1.8968E-002  
  655.50  1.9049E-002  
  656.00  1.9096E-002  
  656.50  1.9192E-002  
  657.00  1.9244E-002  
  657.50  1.9311E-002  
  658.00  1.9311E-002  
  658.50  1.9322E-002  
  659.00  1.9335E-002  
  659.50  1.9412E-002  
  660.00  1.9454E-002  
  660.50  1.9483E-002  
  661.00  1.9505E-002  
  661.50  1.9523E-002  
  662.00  1.9478E-002  
  662.50  1.9403E-002  
  663.00  1.9314E-002  
  663.50  1.9363E-002  
  664.00  1.9397E-002  
  664.50  1.9587E-002  
  665.00  1.9684E-002  
  665.50  1.9760E-002  
  666.00  1.9721E-002  
  666.50  1.9747E-002  
  667.00  1.9828E-002  
  667.50  1.9901E-002  
  668.00  1.9873E-002  
  668.50  1.9775E-002  
  669.00  1.9721E-002  
  669.50  1.9758E-002  
  670.00  1.9914E-002  
  670.50  2.0034E-002  
  671.00  2.0177E-002  
  671.50  2.0211E-002  
  672.00  2.0222E-002  
  672.50  2.0216E-002  
  673.00  2.0189E-002  
  673.50  2.0165E-002  
  674.00  2.0185E-002  
  674.50  2.0255E-002  
  675.00  2.0451E-002  
  675.50  2.0494E-002  
  676.00  2.0521E-002  
  676.50  2.0466E-002  
  677.00  2.0475E-002  
  677.50  2.0486E-002  
  678.00  2.0493E-002  
  678.50  2.0552E-002  
  679.00  2.0618E-002  
  679.50  2.0642E-002  
  680.00  2.0703E-002  
