
# From lspdd.org
# 
# Name: INC Sylvania A19 Domestique
# Indice spectral Valeur 
# MSI 0.25 
# SLI 0.47 
# IPI 0.98 
# Pourcentage de bleu 10.4 
# Caractéristique Valeur 
# CCT calculée (K) 2475 
# CCT du fabricant (K) 2476 
# Tension (V) 120 
# Puissance (W) 60.0 
# Efficacité lumineuse (Lum/W) 14.1 
#
# Image: '/app/system/img_2s/2552/medium_image2.JPG?1413486267'
# Image: '/app/system/img_1s/2552/medium_image1.JPG?1413486267'
# 

  273.00  0.0000E+000  
  273.50  0.0000E+000  
  274.00  0.0000E+000  
  274.50  0.0000E+000  
  275.00  0.0000E+000  
  275.50  0.0000E+000  
  276.00  0.0000E+000  
  276.50  0.0000E+000  
  277.00  0.0000E+000  
  277.50  0.0000E+000  
  278.00  0.0000E+000  
  278.50  0.0000E+000  
  279.00  0.0000E+000  
  279.50  0.0000E+000  
  280.00  0.0000E+000  
  280.50  0.0000E+000  
  281.00  0.0000E+000  
  281.50  0.0000E+000  
  282.00  0.0000E+000  
  282.50  0.0000E+000  
  283.00  0.0000E+000  
  283.50  0.0000E+000  
  284.00  0.0000E+000  
  284.50  0.0000E+000  
  285.00  0.0000E+000  
  285.50  0.0000E+000  
  286.00  0.0000E+000  
  286.50  0.0000E+000  
  287.00  0.0000E+000  
  287.50  0.0000E+000  
  288.00  0.0000E+000  
  288.50  0.0000E+000  
  289.00  0.0000E+000  
  289.50  0.0000E+000  
  290.00  0.0000E+000  
  290.50  0.0000E+000  
  291.00  0.0000E+000  
  291.50  0.0000E+000  
  292.00  0.0000E+000  
  292.50  0.0000E+000  
  293.00  0.0000E+000  
  293.50  0.0000E+000  
  294.00  0.0000E+000  
  294.50  0.0000E+000  
  295.00  0.0000E+000  
  295.50  0.0000E+000  
  296.00  0.0000E+000  
  296.50  0.0000E+000  
  297.00  0.0000E+000  
  297.50  0.0000E+000  
  298.00  0.0000E+000  
  298.50  0.0000E+000  
  299.00  0.0000E+000  
  299.50  0.0000E+000  
  300.00  0.0000E+000  
  300.50  0.0000E+000  
  301.00  0.0000E+000  
  301.50  0.0000E+000  
  302.00  0.0000E+000  
  302.50  0.0000E+000  
  303.00  0.0000E+000  
  303.50  0.0000E+000  
  304.00  0.0000E+000  
  304.50  2.6835E-005  
  305.00  6.7295E-006  
  305.50  7.5460E-007  
  306.00  0.0000E+000  
  306.50  0.0000E+000  
  307.00  1.4021E-005  
  307.50  7.5814E-005  
  308.00  1.1080E-004  
  308.50  1.6161E-004  
  309.00  2.1924E-004  
  309.50  2.3014E-004  
  310.00  2.2379E-004  
  310.50  1.7793E-004  
  311.00  7.7479E-005  
  311.50  4.1895E-006  
  312.00  0.0000E+000  
  312.50  0.0000E+000  
  313.00  0.0000E+000  
  313.50  0.0000E+000  
  314.00  0.0000E+000  
  314.50  0.0000E+000  
  315.00  5.6293E-006  
  315.50  1.1821E-006  
  316.00  0.0000E+000  
  316.50  0.0000E+000  
  317.00  0.0000E+000  
  317.50  8.5989E-006  
  318.00  7.7912E-005  
  318.50  7.8434E-005  
  319.00  5.0477E-005  
  319.50  1.5284E-005  
  320.00  1.2371E-005  
  320.50  6.8391E-005  
  321.00  1.5681E-004  
  321.50  1.6321E-004  
  322.00  7.2943E-005  
  322.50  4.1328E-005  
  323.00  9.2950E-006  
  323.50  1.0698E-005  
  324.00  4.9643E-005  
  324.50  8.1539E-005  
  325.00  1.0175E-004  
  325.50  1.0983E-004  
  326.00  1.0953E-004  
  326.50  6.4945E-005  
  327.00  5.9145E-005  
  327.50  4.9071E-005  
  328.00  6.5083E-005  
  328.50  7.7814E-005  
  329.00  5.6988E-005  
  329.50  4.5423E-005  
  330.00  3.2239E-006  
  330.50  0.0000E+000  
  331.00  0.0000E+000  
  331.50  0.0000E+000  
  332.00  0.0000E+000  
  332.50  9.4561E-007  
  333.00  3.2899E-005  
  333.50  5.2338E-005  
  334.00  1.8551E-005  
  334.50  0.0000E+000  
  335.00  0.0000E+000  
  335.50  0.0000E+000  
  336.00  0.0000E+000  
  336.50  0.0000E+000  
  337.00  0.0000E+000  
  337.50  3.6425E-006  
  338.00  3.4340E-005  
  338.50  4.0646E-005  
  339.00  3.2738E-005  
  339.50  0.0000E+000  
  340.00  0.0000E+000  
  340.50  0.0000E+000  
  341.00  1.1838E-005  
  341.50  7.5913E-005  
  342.00  1.1622E-004  
  342.50  9.5120E-005  
  343.00  8.6259E-005  
  343.50  7.4133E-005  
  344.00  4.9706E-005  
  344.50  3.4657E-005  
  345.00  4.5280E-005  
  345.50  3.1854E-005  
  346.00  3.3971E-005  
  346.50  6.1047E-005  
  347.00  7.3090E-005  
  347.50  1.1704E-004  
  348.00  1.5267E-004  
  348.50  1.3802E-004  
  349.00  1.1841E-004  
  349.50  1.2293E-004  
  350.00  1.3529E-004  
  350.50  1.7487E-004  
  351.00  2.4270E-004  
  351.50  2.3781E-004  
  352.00  2.4227E-004  
  352.50  2.3303E-004  
  353.00  2.2146E-004  
  353.50  1.9747E-004  
  354.00  2.2187E-004  
  354.50  2.3145E-004  
  355.00  2.0367E-004  
  355.50  2.1194E-004  
  356.00  1.4871E-004  
  356.50  1.2038E-004  
  357.00  1.1095E-004  
  357.50  1.0054E-004  
  358.00  1.3823E-004  
  358.50  1.8951E-004  
  359.00  2.4583E-004  
  359.50  2.4865E-004  
  360.00  2.4028E-004  
  360.50  2.4024E-004  
  361.00  2.4757E-004  
  361.50  2.4323E-004  
  362.00  2.2575E-004  
  362.50  2.0122E-004  
  363.00  2.4521E-004  
  363.50  2.6469E-004  
  364.00  2.5873E-004  
  364.50  2.7976E-004  
  365.00  2.9614E-004  
  365.50  3.5830E-004  
  366.00  3.5085E-004  
  366.50  2.8141E-004  
  367.00  1.9158E-004  
  367.50  9.4513E-005  
  368.00  6.6583E-005  
  368.50  1.0904E-004  
  369.00  1.6513E-004  
  369.50  2.7145E-004  
  370.00  3.6287E-004  
  370.50  3.8756E-004  
  371.00  4.0901E-004  
  371.50  3.7437E-004  
  372.00  4.1077E-004  
  372.50  4.4369E-004  
  373.00  4.3458E-004  
  373.50  4.0598E-004  
  374.00  3.3186E-004  
  374.50  3.6763E-004  
  375.00  4.4443E-004  
  375.50  5.1254E-004  
  376.00  5.1174E-004  
  376.50  5.0769E-004  
  377.00  4.9760E-004  
  377.50  4.8921E-004  
  378.00  4.5549E-004  
  378.50  4.1955E-004  
  379.00  4.2646E-004  
  379.50  4.6377E-004  
  380.00  5.2084E-004  
  380.50  5.2994E-004  
  381.00  5.5818E-004  
  381.50  6.1316E-004  
  382.00  6.4692E-004  
  382.50  6.1275E-004  
  383.00  5.5145E-004  
  383.50  5.2023E-004  
  384.00  5.2358E-004  
  384.50  5.5969E-004  
  385.00  6.4264E-004  
  385.50  7.0034E-004  
  386.00  7.3796E-004  
  386.50  7.7064E-004  
  387.00  7.2991E-004  
  387.50  7.0074E-004  
  388.00  7.2049E-004  
  388.50  7.8484E-004  
  389.00  8.4292E-004  
  389.50  9.0938E-004  
  390.00  9.5871E-004  
  390.50  9.7186E-004  
  391.00  9.6439E-004  
  391.50  9.7471E-004  
  392.00  9.4721E-004  
  392.50  9.2535E-004  
  393.00  9.2653E-004  
  393.50  9.5176E-004  
  394.00  1.0037E-003  
  394.50  1.0542E-003  
  395.00  1.0757E-003  
  395.50  1.0594E-003  
  396.00  1.0678E-003  
  396.50  1.1240E-003  
  397.00  1.1875E-003  
  397.50  1.2383E-003  
  398.00  1.2920E-003  
  398.50  1.2913E-003  
  399.00  1.3325E-003  
  399.50  1.3577E-003  
  400.00  1.3868E-003  
  400.50  1.3909E-003  
  401.00  1.3979E-003  
  401.50  1.4252E-003  
  402.00  1.4763E-003  
  402.50  1.5275E-003  
  403.00  1.5487E-003  
  403.50  1.5423E-003  
  404.00  1.5388E-003  
  404.50  1.5914E-003  
  405.00  1.6086E-003  
  405.50  1.6533E-003  
  406.00  1.6865E-003  
  406.50  1.6884E-003  
  407.00  1.7636E-003  
  407.50  1.7869E-003  
  408.00  1.8105E-003  
  408.50  1.7886E-003  
  409.00  1.7541E-003  
  409.50  1.7753E-003  
  410.00  1.8205E-003  
  410.50  1.8739E-003  
  411.00  1.8995E-003  
  411.50  1.9443E-003  
  412.00  1.9490E-003  
  412.50  1.9772E-003  
  413.00  1.9666E-003  
  413.50  1.9401E-003  
  414.00  1.9720E-003  
  414.50  2.0182E-003  
  415.00  2.1015E-003  
  415.50  2.1592E-003  
  416.00  2.2098E-003  
  416.50  2.2294E-003  
  417.00  2.2588E-003  
  417.50  2.2311E-003  
  418.00  2.2174E-003  
  418.50  2.2368E-003  
  419.00  2.2581E-003  
  419.50  2.3612E-003  
  420.00  2.4266E-003  
  420.50  2.4592E-003  
  421.00  2.4477E-003  
  421.50  2.3989E-003  
  422.00  2.3843E-003  
  422.50  2.4436E-003  
  423.00  2.5024E-003  
  423.50  2.5777E-003  
  424.00  2.5993E-003  
  424.50  2.6029E-003  
  425.00  2.6368E-003  
  425.50  2.6853E-003  
  426.00  2.7432E-003  
  426.50  2.7848E-003  
  427.00  2.8001E-003  
  427.50  2.7654E-003  
  428.00  2.7881E-003  
  428.50  2.8083E-003  
  429.00  2.8910E-003  
  429.50  2.9460E-003  
  430.00  2.9485E-003  
  430.50  2.9531E-003  
  431.00  2.9632E-003  
  431.50  2.9997E-003  
  432.00  3.0385E-003  
  432.50  3.0883E-003  
  433.00  3.0999E-003  
  433.50  3.1587E-003  
  434.00  3.2025E-003  
  434.50  3.2137E-003  
  435.00  3.2519E-003  
  435.50  3.3261E-003  
  436.00  3.3493E-003  
  436.50  3.4090E-003  
  437.00  3.4272E-003  
  437.50  3.4144E-003  
  438.00  3.4409E-003  
  438.50  3.4395E-003  
  439.00  3.5084E-003  
  439.50  3.6095E-003  
  440.00  3.6976E-003  
  440.50  3.7711E-003  
  441.00  3.8032E-003  
  441.50  3.8307E-003  
  442.00  3.8079E-003  
  442.50  3.7856E-003  
  443.00  3.7512E-003  
  443.50  3.7922E-003  
  444.00  3.8803E-003  
  444.50  3.9410E-003  
  445.00  3.9776E-003  
  445.50  3.9477E-003  
  446.00  3.9576E-003  
  446.50  3.9548E-003  
  447.00  3.9869E-003  
  447.50  4.0615E-003  
  448.00  4.1412E-003  
  448.50  4.2126E-003  
  449.00  4.2598E-003  
  449.50  4.2904E-003  
  450.00  4.3168E-003  
  450.50  4.4011E-003  
  451.00  4.3951E-003  
  451.50  4.4288E-003  
  452.00  4.4768E-003  
  452.50  4.5586E-003  
  453.00  4.6140E-003  
  453.50  4.6126E-003  
  454.00  4.6014E-003  
  454.50  4.6242E-003  
  455.00  4.7049E-003  
  455.50  4.7678E-003  
  456.00  4.7989E-003  
  456.50  4.8335E-003  
  457.00  4.8637E-003  
  457.50  4.9415E-003  
  458.00  4.9909E-003  
  458.50  5.0665E-003  
  459.00  5.0791E-003  
  459.50  5.1095E-003  
  460.00  5.1074E-003  
  460.50  5.1236E-003  
  461.00  5.1884E-003  
  461.50  5.2387E-003  
  462.00  5.2498E-003  
  462.50  5.2699E-003  
  463.00  5.3273E-003  
  463.50  5.4071E-003  
  464.00  5.5090E-003  
  464.50  5.5501E-003  
  465.00  5.5444E-003  
  465.50  5.6253E-003  
  466.00  5.6865E-003  
  466.50  5.8148E-003  
  467.00  5.8723E-003  
  467.50  5.8826E-003  
  468.00  5.8954E-003  
  468.50  5.9304E-003  
  469.00  5.9826E-003  
  469.50  6.0080E-003  
  470.00  6.0207E-003  
  470.50  6.0569E-003  
  471.00  6.1091E-003  
  471.50  6.1916E-003  
  472.00  6.2458E-003  
  472.50  6.3008E-003  
  473.00  6.3608E-003  
  473.50  6.3894E-003  
  474.00  6.4500E-003  
  474.50  6.5056E-003  
  475.00  6.5679E-003  
  475.50  6.6360E-003  
  476.00  6.6751E-003  
  476.50  6.7142E-003  
  477.00  6.7333E-003  
  477.50  6.7494E-003  
  478.00  6.8151E-003  
  478.50  6.9510E-003  
  479.00  7.0751E-003  
  479.50  7.1676E-003  
  480.00  7.2168E-003  
  480.50  7.2392E-003  
  481.00  7.2879E-003  
  481.50  7.3320E-003  
  482.00  7.3152E-003  
  482.50  7.3274E-003  
  483.00  7.3203E-003  
  483.50  7.3536E-003  
  484.00  7.3985E-003  
  484.50  7.4231E-003  
  485.00  7.5264E-003  
  485.50  7.6474E-003  
  486.00  7.7855E-003  
  486.50  7.8502E-003  
  487.00  7.8855E-003  
  487.50  7.9294E-003  
  488.00  7.9947E-003  
  488.50  8.0769E-003  
  489.00  8.1625E-003  
  489.50  8.1973E-003  
  490.00  8.2186E-003  
  490.50  8.2140E-003  
  491.00  8.2648E-003  
  491.50  8.3124E-003  
  492.00  8.4069E-003  
  492.50  8.4846E-003  
  493.00  8.5770E-003  
  493.50  8.6570E-003  
  494.00  8.7308E-003  
  494.50  8.8009E-003  
  495.00  8.8552E-003  
  495.50  8.8904E-003  
  496.00  8.9250E-003  
  496.50  8.9905E-003  
  497.00  9.0761E-003  
  497.50  9.1785E-003  
  498.00  9.2572E-003  
  498.50  9.3286E-003  
  499.00  9.4005E-003  
  499.50  9.4815E-003  
  500.00  9.5733E-003  
  500.50  9.6546E-003  
  501.00  9.7230E-003  
  501.50  9.7930E-003  
  502.00  9.8819E-003  
  502.50  9.9442E-003  
  503.00  1.0005E-002  
  503.50  1.0059E-002  
  504.00  1.0180E-002  
  504.50  1.0323E-002  
  505.00  1.0434E-002  
  505.50  1.0493E-002  
  506.00  1.0507E-002  
  506.50  1.0569E-002  
  507.00  1.0646E-002  
  507.50  1.0734E-002  
  508.00  1.0815E-002  
  508.50  1.0911E-002  
  509.00  1.1037E-002  
  509.50  1.1198E-002  
  510.00  1.1325E-002  
  510.50  1.1402E-002  
  511.00  1.1480E-002  
  511.50  1.1541E-002  
  512.00  1.1625E-002  
  512.50  1.1713E-002  
  513.00  1.1800E-002  
  513.50  1.1905E-002  
  514.00  1.1989E-002  
  514.50  1.2079E-002  
  515.00  1.2165E-002  
  515.50  1.2274E-002  
  516.00  1.2424E-002  
  516.50  1.2577E-002  
  517.00  1.2725E-002  
  517.50  1.2806E-002  
  518.00  1.2866E-002  
  518.50  1.2970E-002  
  519.00  1.3083E-002  
  519.50  1.3166E-002  
  520.00  1.3224E-002  
  520.50  1.3302E-002  
  521.00  1.3405E-002  
  521.50  1.3548E-002  
  522.00  1.3639E-002  
  522.50  1.3760E-002  
  523.00  1.3880E-002  
  523.50  1.3990E-002  
  524.00  1.4109E-002  
  524.50  1.4197E-002  
  525.00  1.4325E-002  
  525.50  1.4454E-002  
  526.00  1.4590E-002  
  526.50  1.4733E-002  
  527.00  1.4829E-002  
  527.50  1.4933E-002  
  528.00  1.4976E-002  
  528.50  1.5034E-002  
  529.00  1.5129E-002  
  529.50  1.5285E-002  
  530.00  1.5466E-002  
  530.50  1.5621E-002  
  531.00  1.5756E-002  
  531.50  1.5865E-002  
  532.00  1.5968E-002  
  532.50  1.6090E-002  
  533.00  1.6231E-002  
  533.50  1.6318E-002  
  534.00  1.6413E-002  
  534.50  1.6514E-002  
  535.00  1.6612E-002  
  535.50  1.6701E-002  
  536.00  1.6803E-002  
  536.50  1.6930E-002  
  537.00  1.7095E-002  
  537.50  1.7225E-002  
  538.00  1.7360E-002  
  538.50  1.7468E-002  
  539.00  1.7570E-002  
  539.50  1.7660E-002  
  540.00  1.7768E-002  
  540.50  1.7876E-002  
  541.00  1.7939E-002  
  541.50  1.8033E-002  
  542.00  1.8181E-002  
  542.50  1.8373E-002  
  543.00  1.8545E-002  
  543.50  1.8682E-002  
  544.00  1.8849E-002  
  544.50  1.8996E-002  
  545.00  1.9140E-002  
  545.50  1.9235E-002  
  546.00  1.9300E-002  
  546.50  1.9410E-002  
  547.00  1.9483E-002  
  547.50  1.9564E-002  
  548.00  1.9658E-002  
  548.50  1.9754E-002  
  549.00  1.9846E-002  
  549.50  1.9941E-002  
  550.00  2.0072E-002  
  550.50  2.0246E-002  
  551.00  2.0403E-002  
  551.50  2.0560E-002  
  552.00  2.0737E-002  
  552.50  2.0914E-002  
  553.00  2.1028E-002  
  553.50  2.1156E-002  
  554.00  2.1321E-002  
  554.50  2.1461E-002  
  555.00  2.1523E-002  
  555.50  2.1588E-002  
  556.00  2.1646E-002  
  556.50  2.1808E-002  
  557.00  2.1938E-002  
  557.50  2.2099E-002  
  558.00  2.2237E-002  
  558.50  2.2330E-002  
  559.00  2.2453E-002  
  559.50  2.2604E-002  
  560.00  2.2775E-002  
  560.50  2.2910E-002  
  561.00  2.2989E-002  
  561.50  2.3027E-002  
  562.00  2.3177E-002  
  562.50  2.3280E-002  
  563.00  2.3376E-002  
  563.50  2.3456E-002  
  564.00  2.3511E-002  
  564.50  2.3621E-002  
  565.00  2.3749E-002  
  565.50  2.3887E-002  
  566.00  2.4053E-002  
  566.50  2.4167E-002  
  567.00  2.4256E-002  
  567.50  2.4305E-002  
  568.00  2.4395E-002  
  568.50  2.4526E-002  
  569.00  2.4668E-002  
  569.50  2.4824E-002  
  570.00  2.4974E-002  
  570.50  2.5116E-002  
  571.00  2.5248E-002  
  571.50  2.5399E-002  
  572.00  2.5558E-002  
  572.50  2.5695E-002  
  573.00  2.5736E-002  
  573.50  2.5736E-002  
  574.00  2.5763E-002  
  574.50  2.5847E-002  
  575.00  2.5990E-002  
  575.50  2.6159E-002  
  576.00  2.6318E-002  
  576.50  2.6390E-002  
  577.00  2.6483E-002  
  577.50  2.6610E-002  
  578.00  2.6750E-002  
  578.50  2.6892E-002  
  579.00  2.7001E-002  
  579.50  2.7182E-002  
  580.00  2.7307E-002  
  580.50  2.7449E-002  
  581.00  2.7535E-002  
  581.50  2.7703E-002  
  582.00  2.7834E-002  
  582.50  2.7907E-002  
  583.00  2.7941E-002  
  583.50  2.7993E-002  
  584.00  2.8071E-002  
  584.50  2.8159E-002  
  585.00  2.8210E-002  
  585.50  2.8319E-002  
  586.00  2.8451E-002  
  586.50  2.8585E-002  
  587.00  2.8675E-002  
  587.50  2.8718E-002  
  588.00  2.8803E-002  
  588.50  2.8919E-002  
  589.00  2.9001E-002  
  589.50  2.9151E-002  
  590.00  2.9286E-002  
  590.50  2.9511E-002  
  591.00  2.9663E-002  
  591.50  2.9751E-002  
  592.00  2.9778E-002  
  592.50  2.9898E-002  
  593.00  3.0051E-002  
  593.50  3.0193E-002  
  594.00  3.0289E-002  
  594.50  3.0363E-002  
  595.00  3.0508E-002  
  595.50  3.0571E-002  
  596.00  3.0562E-002  
  596.50  3.0516E-002  
  597.00  3.0599E-002  
  597.50  3.0738E-002  
  598.00  3.0948E-002  
  598.50  3.1069E-002  
  599.00  3.1143E-002  
  599.50  3.1169E-002  
  600.00  3.1202E-002  
  600.50  3.1285E-002  
  601.00  3.1413E-002  
  601.50  3.1518E-002  
  602.00  3.1673E-002  
  602.50  3.1747E-002  
  603.00  3.1879E-002  
  603.50  3.1983E-002  
  604.00  3.2124E-002  
  604.50  3.2179E-002  
  605.00  3.2244E-002  
  605.50  3.2344E-002  
  606.00  3.2411E-002  
  606.50  3.2502E-002  
  607.00  3.2578E-002  
  607.50  3.2736E-002  
  608.00  3.2860E-002  
  608.50  3.2997E-002  
  609.00  3.3127E-002  
  609.50  3.3188E-002  
  610.00  3.3176E-002  
  610.50  3.3174E-002  
  611.00  3.3257E-002  
  611.50  3.3378E-002  
  612.00  3.3497E-002  
  612.50  3.3587E-002  
  613.00  3.3694E-002  
  613.50  3.3807E-002  
  614.00  3.3883E-002  
  614.50  3.4057E-002  
  615.00  3.4218E-002  
  615.50  3.4350E-002  
  616.00  3.4372E-002  
  616.50  3.4378E-002  
  617.00  3.4412E-002  
  617.50  3.4397E-002  
  618.00  3.4435E-002  
  618.50  3.4537E-002  
  619.00  3.4665E-002  
  619.50  3.4678E-002  
  620.00  3.4770E-002  
  620.50  3.4928E-002  
  621.00  3.5206E-002  
  621.50  3.5342E-002  
  622.00  3.5406E-002  
  622.50  3.5406E-002  
  623.00  3.5446E-002  
  623.50  3.5582E-002  
  624.00  3.5739E-002  
  624.50  3.5789E-002  
  625.00  3.5720E-002  
  625.50  3.5655E-002  
  626.00  3.5766E-002  
  626.50  3.5911E-002  
  627.00  3.6006E-002  
  627.50  3.6021E-002  
  628.00  3.6158E-002  
  628.50  3.6247E-002  
  629.00  3.6377E-002  
  629.50  3.6475E-002  
  630.00  3.6630E-002  
  630.50  3.6685E-002  
  631.00  3.6635E-002  
  631.50  3.6647E-002  
  632.00  3.6746E-002  
  632.50  3.6897E-002  
  633.00  3.7036E-002  
  633.50  3.7192E-002  
  634.00  3.7314E-002  
  634.50  3.7322E-002  
  635.00  3.7375E-002  
  635.50  3.7414E-002  
  636.00  3.7519E-002  
  636.50  3.7504E-002  
  637.00  3.7572E-002  
  637.50  3.7723E-002  
  638.00  3.7902E-002  
  638.50  3.7985E-002  
  639.00  3.8057E-002  
  639.50  3.8131E-002  
  640.00  3.8225E-002  
  640.50  3.8289E-002  
  641.00  3.8440E-002  
  641.50  3.8576E-002  
  642.00  3.8751E-002  
  642.50  3.8888E-002  
  643.00  3.9032E-002  
  643.50  3.9099E-002  
  644.00  3.9050E-002  
  644.50  3.8960E-002  
  645.00  3.8917E-002  
  645.50  3.8974E-002  
  646.00  3.9148E-002  
  646.50  3.9275E-002  
  647.00  3.9368E-002  
  647.50  3.9428E-002  
  648.00  3.9517E-002  
  648.50  3.9583E-002  
  649.00  3.9581E-002  
  649.50  3.9663E-002  
  650.00  3.9883E-002  
  650.50  4.0098E-002  
  651.00  4.0198E-002  
  651.50  4.0145E-002  
  652.00  4.0080E-002  
  652.50  4.0037E-002  
  653.00  4.0081E-002  
  653.50  4.0185E-002  
  654.00  4.0268E-002  
  654.50  4.0339E-002  
  655.00  4.0524E-002  
  655.50  4.0705E-002  
  656.00  4.0812E-002  
  656.50  4.0797E-002  
  657.00  4.0877E-002  
  657.50  4.0910E-002  
  658.00  4.0990E-002  
  658.50  4.1019E-002  
  659.00  4.1213E-002  
  659.50  4.1356E-002  
  660.00  4.1515E-002  
  660.50  4.1542E-002  
  661.00  4.1597E-002  
  661.50  4.1646E-002  
  662.00  4.1686E-002  
  662.50  4.1711E-002  
  663.00  4.1711E-002  
  663.50  4.1748E-002  
  664.00  4.1845E-002  
  664.50  4.1979E-002  
  665.00  4.1998E-002  
  665.50  4.1925E-002  
  666.00  4.1917E-002  
  666.50  4.2036E-002  
  667.00  4.2176E-002  
  667.50  4.2282E-002  
  668.00  4.2280E-002  
  668.50  4.2265E-002  
  669.00  4.2206E-002  
  669.50  4.2241E-002  
  670.00  4.2293E-002  
  670.50  4.2387E-002  
  671.00  4.2543E-002  
  671.50  4.2742E-002  
  672.00  4.2780E-002  
  672.50  4.2837E-002  
  673.00  4.2818E-002  
  673.50  4.2887E-002  
  674.00  4.2959E-002  
  674.50  4.3128E-002  
  675.00  4.3221E-002  
  675.50  4.3262E-002  
  676.00  4.3323E-002  
  676.50  4.3408E-002  
  677.00  4.3516E-002  
  677.50  4.3609E-002  
  678.00  4.3723E-002  
  678.50  4.3788E-002  
  679.00  4.3740E-002  
  679.50  4.3738E-002  
  680.00  4.3749E-002  
