
# From lspdd.org
# 
# Name: Halo Sylvania PAR30 Domestique
# Indice spectral Valeur 
# MSI 0.34 
# SLI 0.55 
# IPI 0.95 
# Pourcentage de bleu 14.6 
# Caractéristique Valeur 
# CCT calculée (K) 2854 
# CCT du fabricant (K) 2880 
# Tension (V) 120 
# Puissance (W) 50.0 
# Efficacité lumineuse (Lum/W) 13.2 
#
# Image: '/app/system/img_2s/2554/medium_image2.JPG?1413486278'
# Image: '/app/system/img_1s/2554/medium_image1.JPG?1413486278'
# 

  273.00  0.0000E+000  
  273.50  0.0000E+000  
  274.00  0.0000E+000  
  274.50  0.0000E+000  
  275.00  0.0000E+000  
  275.50  0.0000E+000  
  276.00  0.0000E+000  
  276.50  0.0000E+000  
  277.00  0.0000E+000  
  277.50  0.0000E+000  
  278.00  0.0000E+000  
  278.50  0.0000E+000  
  279.00  0.0000E+000  
  279.50  0.0000E+000  
  280.00  0.0000E+000  
  280.50  0.0000E+000  
  281.00  0.0000E+000  
  281.50  0.0000E+000  
  282.00  0.0000E+000  
  282.50  0.0000E+000  
  283.00  0.0000E+000  
  283.50  0.0000E+000  
  284.00  0.0000E+000  
  284.50  0.0000E+000  
  285.00  0.0000E+000  
  285.50  0.0000E+000  
  286.00  0.0000E+000  
  286.50  0.0000E+000  
  287.00  0.0000E+000  
  287.50  0.0000E+000  
  288.00  0.0000E+000  
  288.50  0.0000E+000  
  289.00  0.0000E+000  
  289.50  0.0000E+000  
  290.00  0.0000E+000  
  290.50  0.0000E+000  
  291.00  0.0000E+000  
  291.50  0.0000E+000  
  292.00  0.0000E+000  
  292.50  0.0000E+000  
  293.00  0.0000E+000  
  293.50  0.0000E+000  
  294.00  0.0000E+000  
  294.50  0.0000E+000  
  295.00  0.0000E+000  
  295.50  0.0000E+000  
  296.00  0.0000E+000  
  296.50  0.0000E+000  
  297.00  0.0000E+000  
  297.50  0.0000E+000  
  298.00  0.0000E+000  
  298.50  0.0000E+000  
  299.00  0.0000E+000  
  299.50  0.0000E+000  
  300.00  1.4114E-004  
  300.50  3.8521E-004  
  301.00  3.8036E-004  
  301.50  4.0659E-004  
  302.00  4.6868E-004  
  302.50  4.9012E-004  
  303.00  5.0010E-004  
  303.50  4.9184E-004  
  304.00  4.9057E-004  
  304.50  4.8662E-004  
  305.00  4.6776E-004  
  305.50  4.5343E-004  
  306.00  4.3034E-004  
  306.50  4.6471E-004  
  307.00  4.8729E-004  
  307.50  5.3515E-004  
  308.00  5.5068E-004  
  308.50  5.6428E-004  
  309.00  6.1203E-004  
  309.50  6.2259E-004  
  310.00  5.8917E-004  
  310.50  5.4741E-004  
  311.00  4.8914E-004  
  311.50  4.3914E-004  
  312.00  4.3051E-004  
  312.50  4.6685E-004  
  313.00  5.1571E-004  
  313.50  5.5176E-004  
  314.00  5.7820E-004  
  314.50  5.6724E-004  
  315.00  5.8906E-004  
  315.50  6.1255E-004  
  316.00  6.0105E-004  
  316.50  6.1074E-004  
  317.00  5.8679E-004  
  317.50  6.0585E-004  
  318.00  6.2054E-004  
  318.50  6.4435E-004  
  319.00  6.3876E-004  
  319.50  6.4992E-004  
  320.00  6.8682E-004  
  320.50  6.9115E-004  
  321.00  7.8860E-004  
  321.50  8.5597E-004  
  322.00  8.3734E-004  
  322.50  8.4863E-004  
  323.00  7.8597E-004  
  323.50  7.3063E-004  
  324.00  7.2193E-004  
  324.50  7.6090E-004  
  325.00  8.0169E-004  
  325.50  8.4574E-004  
  326.00  8.8728E-004  
  326.50  8.7908E-004  
  327.00  9.1481E-004  
  327.50  9.3138E-004  
  328.00  9.6752E-004  
  328.50  1.0300E-003  
  329.00  1.0872E-003  
  329.50  1.1456E-003  
  330.00  1.1620E-003  
  330.50  1.1478E-003  
  331.00  1.1574E-003  
  331.50  1.1919E-003  
  332.00  1.2909E-003  
  332.50  1.4309E-003  
  333.00  1.5332E-003  
  333.50  1.5971E-003  
  334.00  1.6020E-003  
  334.50  1.5770E-003  
  335.00  1.5872E-003  
  335.50  1.6477E-003  
  336.00  1.6919E-003  
  336.50  1.7185E-003  
  337.00  1.7704E-003  
  337.50  1.8069E-003  
  338.00  1.9031E-003  
  338.50  1.9701E-003  
  339.00  2.0143E-003  
  339.50  2.0229E-003  
  340.00  2.0611E-003  
  340.50  2.1425E-003  
  341.00  2.2185E-003  
  341.50  2.3503E-003  
  342.00  2.4440E-003  
  342.50  2.4605E-003  
  343.00  2.5265E-003  
  343.50  2.6015E-003  
  344.00  2.6729E-003  
  344.50  2.7778E-003  
  345.00  2.8513E-003  
  345.50  2.8541E-003  
  346.00  2.9253E-003  
  346.50  3.0136E-003  
  347.00  3.0668E-003  
  347.50  3.1730E-003  
  348.00  3.2326E-003  
  348.50  3.2713E-003  
  349.00  3.3486E-003  
  349.50  3.4334E-003  
  350.00  3.5435E-003  
  350.50  3.6592E-003  
  351.00  3.7723E-003  
  351.50  3.8596E-003  
  352.00  3.9455E-003  
  352.50  4.0434E-003  
  353.00  4.1310E-003  
  353.50  4.1905E-003  
  354.00  4.3180E-003  
  354.50  4.4075E-003  
  355.00  4.4748E-003  
  355.50  4.5933E-003  
  356.00  4.6286E-003  
  356.50  4.6841E-003  
  357.00  4.7934E-003  
  357.50  4.9154E-003  
  358.00  5.0473E-003  
  358.50  5.2069E-003  
  359.00  5.3177E-003  
  359.50  5.3865E-003  
  360.00  5.4441E-003  
  360.50  5.4895E-003  
  361.00  5.5691E-003  
  361.50  5.6654E-003  
  362.00  5.7529E-003  
  362.50  5.7973E-003  
  363.00  5.8707E-003  
  363.50  6.0002E-003  
  364.00  6.2272E-003  
  364.50  6.4444E-003  
  365.00  6.6025E-003  
  365.50  6.7464E-003  
  366.00  6.7449E-003  
  366.50  6.7513E-003  
  367.00  6.7837E-003  
  367.50  6.8043E-003  
  368.00  6.8977E-003  
  368.50  7.0489E-003  
  369.00  7.2404E-003  
  369.50  7.5231E-003  
  370.00  7.7516E-003  
  370.50  7.8888E-003  
  371.00  7.9791E-003  
  371.50  7.9729E-003  
  372.00  8.0842E-003  
  372.50  8.1882E-003  
  373.00  8.2638E-003  
  373.50  8.3945E-003  
  374.00  8.4391E-003  
  374.50  8.5855E-003  
  375.00  8.7260E-003  
  375.50  8.7836E-003  
  376.00  8.8546E-003  
  376.50  8.9686E-003  
  377.00  9.1395E-003  
  377.50  9.3426E-003  
  378.00  9.4842E-003  
  378.50  9.5811E-003  
  379.00  9.6459E-003  
  379.50  9.8085E-003  
  380.00  9.9973E-003  
  380.50  1.0147E-002  
  381.00  1.0319E-002  
  381.50  1.0424E-002  
  382.00  1.0591E-002  
  382.50  1.0757E-002  
  383.00  1.0879E-002  
  383.50  1.0992E-002  
  384.00  1.1081E-002  
  384.50  1.1261E-002  
  385.00  1.1516E-002  
  385.50  1.1737E-002  
  386.00  1.1880E-002  
  386.50  1.2008E-002  
  387.00  1.2061E-002  
  387.50  1.2192E-002  
  388.00  1.2371E-002  
  388.50  1.2545E-002  
  389.00  1.2744E-002  
  389.50  1.2911E-002  
  390.00  1.3114E-002  
  390.50  1.3352E-002  
  391.00  1.3515E-002  
  391.50  1.3679E-002  
  392.00  1.3800E-002  
  392.50  1.3857E-002  
  393.00  1.3974E-002  
  393.50  1.4076E-002  
  394.00  1.4203E-002  
  394.50  1.4356E-002  
  395.00  1.4488E-002  
  395.50  1.4629E-002  
  396.00  1.4825E-002  
  396.50  1.5057E-002  
  397.00  1.5274E-002  
  397.50  1.5501E-002  
  398.00  1.5778E-002  
  398.50  1.5969E-002  
  399.00  1.6157E-002  
  399.50  1.6335E-002  
  400.00  1.6419E-002  
  400.50  1.6617E-002  
  401.00  1.6792E-002  
  401.50  1.6896E-002  
  402.00  1.7058E-002  
  402.50  1.7187E-002  
  403.00  1.7293E-002  
  403.50  1.7417E-002  
  404.00  1.7574E-002  
  404.50  1.7772E-002  
  405.00  1.8002E-002  
  405.50  1.8275E-002  
  406.00  1.8494E-002  
  406.50  1.8678E-002  
  407.00  1.8862E-002  
  407.50  1.8927E-002  
  408.00  1.9115E-002  
  408.50  1.9346E-002  
  409.00  1.9633E-002  
  409.50  1.9916E-002  
  410.00  2.0076E-002  
  410.50  2.0196E-002  
  411.00  2.0371E-002  
  411.50  2.0599E-002  
  412.00  2.0894E-002  
  412.50  2.1187E-002  
  413.00  2.1300E-002  
  413.50  2.1539E-002  
  414.00  2.1702E-002  
  414.50  2.1827E-002  
  415.00  2.2008E-002  
  415.50  2.2128E-002  
  416.00  2.2370E-002  
  416.50  2.2634E-002  
  417.00  2.2923E-002  
  417.50  2.3104E-002  
  418.00  2.3307E-002  
  418.50  2.3465E-002  
  419.00  2.3669E-002  
  419.50  2.3961E-002  
  420.00  2.4214E-002  
  420.50  2.4481E-002  
  421.00  2.4673E-002  
  421.50  2.4807E-002  
  422.00  2.4966E-002  
  422.50  2.5068E-002  
  423.00  2.5292E-002  
  423.50  2.5562E-002  
  424.00  2.5879E-002  
  424.50  2.6076E-002  
  425.00  2.6308E-002  
  425.50  2.6501E-002  
  426.00  2.6824E-002  
  426.50  2.7173E-002  
  427.00  2.7393E-002  
  427.50  2.7651E-002  
  428.00  2.7913E-002  
  428.50  2.8079E-002  
  429.00  2.8297E-002  
  429.50  2.8456E-002  
  430.00  2.8646E-002  
  430.50  2.8959E-002  
  431.00  2.9257E-002  
  431.50  2.9421E-002  
  432.00  2.9669E-002  
  432.50  2.9884E-002  
  433.00  3.0133E-002  
  433.50  3.0371E-002  
  434.00  3.0684E-002  
  434.50  3.1030E-002  
  435.00  3.1442E-002  
  435.50  3.1862E-002  
  436.00  3.2099E-002  
  436.50  3.2349E-002  
  437.00  3.2549E-002  
  437.50  3.2741E-002  
  438.00  3.3041E-002  
  438.50  3.3225E-002  
  439.00  3.3461E-002  
  439.50  3.3757E-002  
  440.00  3.4093E-002  
  440.50  3.4541E-002  
  441.00  3.4824E-002  
  441.50  3.5041E-002  
  442.00  3.5156E-002  
  442.50  3.5195E-002  
  443.00  3.5452E-002  
  443.50  3.5776E-002  
  444.00  3.6235E-002  
  444.50  3.6676E-002  
  445.00  3.7004E-002  
  445.50  3.7200E-002  
  446.00  3.7413E-002  
  446.50  3.7579E-002  
  447.00  3.7900E-002  
  447.50  3.8319E-002  
  448.00  3.8799E-002  
  448.50  3.9201E-002  
  449.00  3.9467E-002  
  449.50  3.9716E-002  
  450.00  3.9957E-002  
  450.50  4.0232E-002  
  451.00  4.0535E-002  
  451.50  4.0706E-002  
  452.00  4.0945E-002  
  452.50  4.1245E-002  
  453.00  4.1542E-002  
  453.50  4.1839E-002  
  454.00  4.2058E-002  
  454.50  4.2250E-002  
  455.00  4.2558E-002  
  455.50  4.2846E-002  
  456.00  4.3111E-002  
  456.50  4.3493E-002  
  457.00  4.3839E-002  
  457.50  4.4317E-002  
  458.00  4.4715E-002  
  458.50  4.5023E-002  
  459.00  4.5274E-002  
  459.50  4.5551E-002  
  460.00  4.5873E-002  
  460.50  4.6255E-002  
  461.00  4.6674E-002  
  461.50  4.6988E-002  
  462.00  4.7317E-002  
  462.50  4.7651E-002  
  463.00  4.7948E-002  
  463.50  4.8242E-002  
  464.00  4.8565E-002  
  464.50  4.8929E-002  
  465.00  4.9307E-002  
  465.50  4.9688E-002  
  466.00  4.9944E-002  
  466.50  5.0219E-002  
  467.00  5.0504E-002  
  467.50  5.0831E-002  
  468.00  5.1150E-002  
  468.50  5.1483E-002  
  469.00  5.1836E-002  
  469.50  5.2156E-002  
  470.00  5.2562E-002  
  470.50  5.3018E-002  
  471.00  5.3374E-002  
  471.50  5.3696E-002  
  472.00  5.3890E-002  
  472.50  5.4135E-002  
  473.00  5.4571E-002  
  473.50  5.5087E-002  
  474.00  5.5549E-002  
  474.50  5.5884E-002  
  475.00  5.6044E-002  
  475.50  5.6204E-002  
  476.00  5.6430E-002  
  476.50  5.6838E-002  
  477.00  5.7271E-002  
  477.50  5.7676E-002  
  478.00  5.8027E-002  
  478.50  5.8483E-002  
  479.00  5.9078E-002  
  479.50  5.9555E-002  
  480.00  6.0029E-002  
  480.50  6.0331E-002  
  481.00  6.0620E-002  
  481.50  6.0893E-002  
  482.00  6.1154E-002  
  482.50  6.1473E-002  
  483.00  6.1829E-002  
  483.50  6.2236E-002  
  484.00  6.2701E-002  
  484.50  6.3040E-002  
  485.00  6.3366E-002  
  485.50  6.3701E-002  
  486.00  6.4051E-002  
  486.50  6.4575E-002  
  487.00  6.4920E-002  
  487.50  6.5319E-002  
  488.00  6.5703E-002  
  488.50  6.6138E-002  
  489.00  6.6608E-002  
  489.50  6.6931E-002  
  490.00  6.7281E-002  
  490.50  6.7671E-002  
  491.00  6.8069E-002  
  491.50  6.8482E-002  
  492.00  6.8864E-002  
  492.50  6.9201E-002  
  493.00  6.9712E-002  
  493.50  7.0246E-002  
  494.00  7.0750E-002  
  494.50  7.1254E-002  
  495.00  7.1574E-002  
  495.50  7.1950E-002  
  496.00  7.2329E-002  
  496.50  7.2741E-002  
  497.00  7.3202E-002  
  497.50  7.3731E-002  
  498.00  7.4229E-002  
  498.50  7.4723E-002  
  499.00  7.5201E-002  
  499.50  7.5685E-002  
  500.00  7.6268E-002  
  500.50  7.6722E-002  
  501.00  7.7216E-002  
  501.50  7.7667E-002  
  502.00  7.8127E-002  
  502.50  7.8539E-002  
  503.00  7.8966E-002  
  503.50  7.9524E-002  
  504.00  8.0245E-002  
  504.50  8.0895E-002  
  505.00  8.1434E-002  
  505.50  8.1961E-002  
  506.00  8.2489E-002  
  506.50  8.3094E-002  
  507.00  8.3663E-002  
  507.50  8.4246E-002  
  508.00  8.4821E-002  
  508.50  8.5368E-002  
  509.00  8.5850E-002  
  509.50  8.6387E-002  
  510.00  8.6985E-002  
  510.50  8.7542E-002  
  511.00  8.8183E-002  
  511.50  8.8695E-002  
  512.00  8.9324E-002  
  512.50  8.9900E-002  
  513.00  9.0497E-002  
  513.50  9.1162E-002  
  514.00  9.1731E-002  
  514.50  9.2347E-002  
  515.00  9.2883E-002  
  515.50  9.3438E-002  
  516.00  9.4004E-002  
  516.50  9.4645E-002  
  517.00  9.5364E-002  
  517.50  9.6095E-002  
  518.00  9.6786E-002  
  518.50  9.7442E-002  
  519.00  9.7962E-002  
  519.50  9.8490E-002  
  520.00  9.9004E-002  
  520.50  9.9614E-002  
  521.00  1.0027E-001  
  521.50  1.0099E-001  
  522.00  1.0162E-001  
  522.50  1.0220E-001  
  523.00  1.0269E-001  
  523.50  1.0318E-001  
  524.00  1.0375E-001  
  524.50  1.0436E-001  
  525.00  1.0494E-001  
  525.50  1.0556E-001  
  526.00  1.0615E-001  
  526.50  1.0682E-001  
  527.00  1.0748E-001  
  527.50  1.0818E-001  
  528.00  1.0875E-001  
  528.50  1.0926E-001  
  529.00  1.0973E-001  
  529.50  1.1035E-001  
  530.00  1.1098E-001  
  530.50  1.1157E-001  
  531.00  1.1212E-001  
  531.50  1.1263E-001  
  532.00  1.1321E-001  
  532.50  1.1378E-001  
  533.00  1.1437E-001  
  533.50  1.1484E-001  
  534.00  1.1532E-001  
  534.50  1.1596E-001  
  535.00  1.1664E-001  
  535.50  1.1723E-001  
  536.00  1.1765E-001  
  536.50  1.1805E-001  
  537.00  1.1856E-001  
  537.50  1.1919E-001  
  538.00  1.1980E-001  
  538.50  1.2030E-001  
  539.00  1.2079E-001  
  539.50  1.2125E-001  
  540.00  1.2175E-001  
  540.50  1.2232E-001  
  541.00  1.2276E-001  
  541.50  1.2324E-001  
  542.00  1.2376E-001  
  542.50  1.2427E-001  
  543.00  1.2489E-001  
  543.50  1.2541E-001  
  544.00  1.2602E-001  
  544.50  1.2658E-001  
  545.00  1.2712E-001  
  545.50  1.2759E-001  
  546.00  1.2802E-001  
  546.50  1.2848E-001  
  547.00  1.2900E-001  
  547.50  1.2951E-001  
  548.00  1.2999E-001  
  548.50  1.3045E-001  
  549.00  1.3093E-001  
  549.50  1.3138E-001  
  550.00  1.3179E-001  
  550.50  1.3227E-001  
  551.00  1.3284E-001  
  551.50  1.3348E-001  
  552.00  1.3404E-001  
  552.50  1.3449E-001  
  553.00  1.3495E-001  
  553.50  1.3551E-001  
  554.00  1.3605E-001  
  554.50  1.3656E-001  
  555.00  1.3692E-001  
  555.50  1.3742E-001  
  556.00  1.3802E-001  
  556.50  1.3859E-001  
  557.00  1.3910E-001  
  557.50  1.3966E-001  
  558.00  1.4023E-001  
  558.50  1.4080E-001  
  559.00  1.4127E-001  
  559.50  1.4174E-001  
  560.00  1.4222E-001  
  560.50  1.4262E-001  
  561.00  1.4300E-001  
  561.50  1.4339E-001  
  562.00  1.4388E-001  
  562.50  1.4438E-001  
  563.00  1.4485E-001  
  563.50  1.4529E-001  
  564.00  1.4571E-001  
  564.50  1.4624E-001  
  565.00  1.4668E-001  
  565.50  1.4717E-001  
  566.00  1.4762E-001  
  566.50  1.4813E-001  
  567.00  1.4858E-001  
  567.50  1.4900E-001  
  568.00  1.4947E-001  
  568.50  1.4999E-001  
  569.00  1.5042E-001  
  569.50  1.5074E-001  
  570.00  1.5114E-001  
  570.50  1.5162E-001  
  571.00  1.5220E-001  
  571.50  1.5270E-001  
  572.00  1.5316E-001  
  572.50  1.5359E-001  
  573.00  1.5404E-001  
  573.50  1.5444E-001  
  574.00  1.5492E-001  
  574.50  1.5537E-001  
  575.00  1.5585E-001  
  575.50  1.5634E-001  
  576.00  1.5681E-001  
  576.50  1.5727E-001  
  577.00  1.5776E-001  
  577.50  1.5831E-001  
  578.00  1.5882E-001  
  578.50  1.5933E-001  
  579.00  1.5974E-001  
  579.50  1.6018E-001  
  580.00  1.6055E-001  
  580.50  1.6103E-001  
  581.00  1.6144E-001  
  581.50  1.6192E-001  
  582.00  1.6230E-001  
  582.50  1.6271E-001  
  583.00  1.6313E-001  
  583.50  1.6364E-001  
  584.00  1.6409E-001  
  584.50  1.6454E-001  
  585.00  1.6489E-001  
  585.50  1.6529E-001  
  586.00  1.6577E-001  
  586.50  1.6633E-001  
  587.00  1.6683E-001  
  587.50  1.6725E-001  
  588.00  1.6756E-001  
  588.50  1.6797E-001  
  589.00  1.6849E-001  
  589.50  1.6904E-001  
  590.00  1.6963E-001  
  590.50  1.7011E-001  
  591.00  1.7056E-001  
  591.50  1.7088E-001  
  592.00  1.7116E-001  
  592.50  1.7152E-001  
  593.00  1.7196E-001  
  593.50  1.7242E-001  
  594.00  1.7293E-001  
  594.50  1.7345E-001  
  595.00  1.7396E-001  
  595.50  1.7437E-001  
  596.00  1.7470E-001  
  596.50  1.7502E-001  
  597.00  1.7546E-001  
  597.50  1.7591E-001  
  598.00  1.7631E-001  
  598.50  1.7664E-001  
  599.00  1.7698E-001  
  599.50  1.7739E-001  
  600.00  1.7791E-001  
  600.50  1.7837E-001  
  601.00  1.7880E-001  
  601.50  1.7908E-001  
  602.00  1.7943E-001  
  602.50  1.7984E-001  
  603.00  1.8031E-001  
  603.50  1.8078E-001  
  604.00  1.8114E-001  
  604.50  1.8156E-001  
  605.00  1.8201E-001  
  605.50  1.8253E-001  
  606.00  1.8302E-001  
  606.50  1.8348E-001  
  607.00  1.8389E-001  
  607.50  1.8434E-001  
  608.00  1.8484E-001  
  608.50  1.8540E-001  
  609.00  1.8586E-001  
  609.50  1.8629E-001  
  610.00  1.8669E-001  
  610.50  1.8706E-001  
  611.00  1.8748E-001  
  611.50  1.8784E-001  
  612.00  1.8826E-001  
  612.50  1.8869E-001  
  613.00  1.8916E-001  
  613.50  1.8969E-001  
  614.00  1.9022E-001  
  614.50  1.9073E-001  
  615.00  1.9124E-001  
  615.50  1.9164E-001  
  616.00  1.9200E-001  
  616.50  1.9234E-001  
  617.00  1.9266E-001  
  617.50  1.9310E-001  
  618.00  1.9360E-001  
  618.50  1.9406E-001  
  619.00  1.9436E-001  
  619.50  1.9463E-001  
  620.00  1.9504E-001  
  620.50  1.9554E-001  
  621.00  1.9606E-001  
  621.50  1.9662E-001  
  622.00  1.9716E-001  
  622.50  1.9759E-001  
  623.00  1.9791E-001  
  623.50  1.9820E-001  
  624.00  1.9855E-001  
  624.50  1.9891E-001  
  625.00  1.9929E-001  
  625.50  1.9983E-001  
  626.00  2.0026E-001  
  626.50  2.0071E-001  
  627.00  2.0112E-001  
  627.50  2.0165E-001  
  628.00  2.0222E-001  
  628.50  2.0253E-001  
  629.00  2.0282E-001  
  629.50  2.0308E-001  
  630.00  2.0363E-001  
  630.50  2.0412E-001  
  631.00  2.0457E-001  
  631.50  2.0486E-001  
  632.00  2.0504E-001  
  632.50  2.0525E-001  
  633.00  2.0562E-001  
  633.50  2.0610E-001  
  634.00  2.0665E-001  
  634.50  2.0721E-001  
  635.00  2.0775E-001  
  635.50  2.0817E-001  
  636.00  2.0847E-001  
  636.50  2.0876E-001  
  637.00  2.0922E-001  
  637.50  2.0967E-001  
  638.00  2.1007E-001  
  638.50  2.1032E-001  
  639.00  2.1060E-001  
  639.50  2.1095E-001  
  640.00  2.1131E-001  
  640.50  2.1176E-001  
  641.00  2.1218E-001  
  641.50  2.1265E-001  
  642.00  2.1303E-001  
  642.50  2.1347E-001  
  643.00  2.1376E-001  
  643.50  2.1402E-001  
  644.00  2.1437E-001  
  644.50  2.1475E-001  
  645.00  2.1528E-001  
  645.50  2.1567E-001  
  646.00  2.1597E-001  
  646.50  2.1618E-001  
  647.00  2.1666E-001  
  647.50  2.1733E-001  
  648.00  2.1790E-001  
  648.50  2.1824E-001  
  649.00  2.1858E-001  
  649.50  2.1893E-001  
  650.00  2.1928E-001  
  650.50  2.1960E-001  
  651.00  2.1984E-001  
  651.50  2.2007E-001  
  652.00  2.2038E-001  
  652.50  2.2101E-001  
  653.00  2.2160E-001  
  653.50  2.2194E-001  
  654.00  2.2213E-001  
  654.50  2.2232E-001  
  655.00  2.2269E-001  
  655.50  2.2308E-001  
  656.00  2.2360E-001  
  656.50  2.2410E-001  
  657.00  2.2439E-001  
  657.50  2.2467E-001  
  658.00  2.2511E-001  
  658.50  2.2568E-001  
  659.00  2.2611E-001  
  659.50  2.2652E-001  
  660.00  2.2703E-001  
  660.50  2.2750E-001  
  661.00  2.2774E-001  
  661.50  2.2802E-001  
  662.00  2.2831E-001  
  662.50  2.2879E-001  
  663.00  2.2922E-001  
  663.50  2.2966E-001  
  664.00  2.3001E-001  
  664.50  2.3022E-001  
  665.00  2.3051E-001  
  665.50  2.3071E-001  
  666.00  2.3106E-001  
  666.50  2.3147E-001  
  667.00  2.3208E-001  
  667.50  2.3275E-001  
  668.00  2.3311E-001  
  668.50  2.3345E-001  
  669.00  2.3376E-001  
  669.50  2.3413E-001  
  670.00  2.3439E-001  
  670.50  2.3461E-001  
  671.00  2.3501E-001  
  671.50  2.3544E-001  
  672.00  2.3587E-001  
  672.50  2.3613E-001  
  673.00  2.3634E-001  
  673.50  2.3666E-001  
  674.00  2.3716E-001  
  674.50  2.3786E-001  
  675.00  2.3841E-001  
  675.50  2.3883E-001  
  676.00  2.3892E-001  
  676.50  2.3921E-001  
  677.00  2.3956E-001  
  677.50  2.4019E-001  
  678.00  2.4052E-001  
  678.50  2.4095E-001  
  679.00  2.4127E-001  
  679.50  2.4185E-001  
