
# From lspdd.org
# 
# Name: DEL EnergySmart A19 Domestique
# Indice spectral Valeur 
# MSI 0.28 
# SLI 0.49 
# IPI 0.64 
# Pourcentage de bleu 19.0 
# Caractéristique Valeur 
# CCT calculée (K) 2889 
# CCT du fabricant (K) 3000 
# Tension (V) 120 
# Puissance (W) 13.0 
# Efficacité lumineuse (Lum/W) 61.5 
#
# Image: '/app/system/img_2s/2566/medium_image2.JPG?1413486355'
# Image: '/app/system/img_1s/2566/medium_image1.JPG?1413486358'
# 

  273.00  0.0000E+000  
  273.50  0.0000E+000  
  274.00  0.0000E+000  
  274.50  0.0000E+000  
  275.00  0.0000E+000  
  275.50  0.0000E+000  
  276.00  0.0000E+000  
  276.50  0.0000E+000  
  277.00  0.0000E+000  
  277.50  0.0000E+000  
  278.00  0.0000E+000  
  278.50  0.0000E+000  
  279.00  0.0000E+000  
  279.50  0.0000E+000  
  280.00  0.0000E+000  
  280.50  0.0000E+000  
  281.00  0.0000E+000  
  281.50  0.0000E+000  
  282.00  0.0000E+000  
  282.50  0.0000E+000  
  283.00  0.0000E+000  
  283.50  0.0000E+000  
  284.00  0.0000E+000  
  284.50  0.0000E+000  
  285.00  0.0000E+000  
  285.50  0.0000E+000  
  286.00  0.0000E+000  
  286.50  0.0000E+000  
  287.00  0.0000E+000  
  287.50  0.0000E+000  
  288.00  0.0000E+000  
  288.50  0.0000E+000  
  289.00  0.0000E+000  
  289.50  0.0000E+000  
  290.00  0.0000E+000  
  290.50  0.0000E+000  
  291.00  0.0000E+000  
  291.50  0.0000E+000  
  292.00  0.0000E+000  
  292.50  0.0000E+000  
  293.00  0.0000E+000  
  293.50  0.0000E+000  
  294.00  0.0000E+000  
  294.50  0.0000E+000  
  295.00  0.0000E+000  
  295.50  0.0000E+000  
  296.00  0.0000E+000  
  296.50  0.0000E+000  
  297.00  0.0000E+000  
  297.50  0.0000E+000  
  298.00  0.0000E+000  
  298.50  0.0000E+000  
  299.00  0.0000E+000  
  299.50  0.0000E+000  
  300.00  0.0000E+000  
  300.50  0.0000E+000  
  301.00  0.0000E+000  
  301.50  0.0000E+000  
  302.00  0.0000E+000  
  302.50  0.0000E+000  
  303.00  0.0000E+000  
  303.50  0.0000E+000  
  304.00  0.0000E+000  
  304.50  0.0000E+000  
  305.00  0.0000E+000  
  305.50  0.0000E+000  
  306.00  0.0000E+000  
  306.50  0.0000E+000  
  307.00  0.0000E+000  
  307.50  0.0000E+000  
  308.00  0.0000E+000  
  308.50  0.0000E+000  
  309.00  0.0000E+000  
  309.50  0.0000E+000  
  310.00  0.0000E+000  
  310.50  0.0000E+000  
  311.00  0.0000E+000  
  311.50  0.0000E+000  
  312.00  0.0000E+000  
  312.50  0.0000E+000  
  313.00  0.0000E+000  
  313.50  0.0000E+000  
  314.00  0.0000E+000  
  314.50  0.0000E+000  
  315.00  0.0000E+000  
  315.50  0.0000E+000  
  316.00  0.0000E+000  
  316.50  0.0000E+000  
  317.00  0.0000E+000  
  317.50  0.0000E+000  
  318.00  0.0000E+000  
  318.50  0.0000E+000  
  319.00  0.0000E+000  
  319.50  0.0000E+000  
  320.00  0.0000E+000  
  320.50  0.0000E+000  
  321.00  0.0000E+000  
  321.50  0.0000E+000  
  322.00  0.0000E+000  
  322.50  0.0000E+000  
  323.00  0.0000E+000  
  323.50  0.0000E+000  
  324.00  0.0000E+000  
  324.50  0.0000E+000  
  325.00  0.0000E+000  
  325.50  0.0000E+000  
  326.00  0.0000E+000  
  326.50  0.0000E+000  
  327.00  0.0000E+000  
  327.50  0.0000E+000  
  328.00  0.0000E+000  
  328.50  0.0000E+000  
  329.00  0.0000E+000  
  329.50  0.0000E+000  
  330.00  0.0000E+000  
  330.50  0.0000E+000  
  331.00  0.0000E+000  
  331.50  0.0000E+000  
  332.00  0.0000E+000  
  332.50  0.0000E+000  
  333.00  0.0000E+000  
  333.50  0.0000E+000  
  334.00  0.0000E+000  
  334.50  0.0000E+000  
  335.00  0.0000E+000  
  335.50  0.0000E+000  
  336.00  0.0000E+000  
  336.50  0.0000E+000  
  337.00  0.0000E+000  
  337.50  0.0000E+000  
  338.00  0.0000E+000  
  338.50  0.0000E+000  
  339.00  0.0000E+000  
  339.50  0.0000E+000  
  340.00  0.0000E+000  
  340.50  0.0000E+000  
  341.00  0.0000E+000  
  341.50  0.0000E+000  
  342.00  0.0000E+000  
  342.50  0.0000E+000  
  343.00  0.0000E+000  
  343.50  0.0000E+000  
  344.00  0.0000E+000  
  344.50  0.0000E+000  
  345.00  0.0000E+000  
  345.50  0.0000E+000  
  346.00  0.0000E+000  
  346.50  0.0000E+000  
  347.00  0.0000E+000  
  347.50  0.0000E+000  
  348.00  0.0000E+000  
  348.50  0.0000E+000  
  349.00  0.0000E+000  
  349.50  0.0000E+000  
  350.00  0.0000E+000  
  350.50  0.0000E+000  
  351.00  0.0000E+000  
  351.50  0.0000E+000  
  352.00  0.0000E+000  
  352.50  0.0000E+000  
  353.00  0.0000E+000  
  353.50  0.0000E+000  
  354.00  0.0000E+000  
  354.50  0.0000E+000  
  355.00  0.0000E+000  
  355.50  0.0000E+000  
  356.00  0.0000E+000  
  356.50  0.0000E+000  
  357.00  0.0000E+000  
  357.50  0.0000E+000  
  358.00  0.0000E+000  
  358.50  0.0000E+000  
  359.00  0.0000E+000  
  359.50  0.0000E+000  
  360.00  0.0000E+000  
  360.50  0.0000E+000  
  361.00  0.0000E+000  
  361.50  0.0000E+000  
  362.00  0.0000E+000  
  362.50  0.0000E+000  
  363.00  9.3753E-007  
  363.50  1.3466E-005  
  364.00  1.0085E-006  
  364.50  0.0000E+000  
  365.00  0.0000E+000  
  365.50  0.0000E+000  
  366.00  0.0000E+000  
  366.50  0.0000E+000  
  367.00  0.0000E+000  
  367.50  0.0000E+000  
  368.00  0.0000E+000  
  368.50  0.0000E+000  
  369.00  0.0000E+000  
  369.50  0.0000E+000  
  370.00  0.0000E+000  
  370.50  0.0000E+000  
  371.00  0.0000E+000  
  371.50  0.0000E+000  
  372.00  0.0000E+000  
  372.50  0.0000E+000  
  373.00  0.0000E+000  
  373.50  0.0000E+000  
  374.00  0.0000E+000  
  374.50  0.0000E+000  
  375.00  0.0000E+000  
  375.50  0.0000E+000  
  376.00  0.0000E+000  
  376.50  0.0000E+000  
  377.00  0.0000E+000  
  377.50  0.0000E+000  
  378.00  0.0000E+000  
  378.50  0.0000E+000  
  379.00  0.0000E+000  
  379.50  0.0000E+000  
  380.00  0.0000E+000  
  380.50  0.0000E+000  
  381.00  0.0000E+000  
  381.50  0.0000E+000  
  382.00  0.0000E+000  
  382.50  0.0000E+000  
  383.00  0.0000E+000  
  383.50  0.0000E+000  
  384.00  0.0000E+000  
  384.50  0.0000E+000  
  385.00  0.0000E+000  
  385.50  0.0000E+000  
  386.00  1.3448E-006  
  386.50  1.9582E-005  
  387.00  2.5491E-005  
  387.50  3.3220E-006  
  388.00  0.0000E+000  
  388.50  0.0000E+000  
  389.00  0.0000E+000  
  389.50  0.0000E+000  
  390.00  0.0000E+000  
  390.50  0.0000E+000  
  391.00  5.7883E-006  
  391.50  4.7289E-005  
  392.00  4.9912E-005  
  392.50  3.3544E-005  
  393.00  1.6285E-005  
  393.50  0.0000E+000  
  394.00  0.0000E+000  
  394.50  0.0000E+000  
  395.00  0.0000E+000  
  395.50  0.0000E+000  
  396.00  0.0000E+000  
  396.50  0.0000E+000  
  397.00  0.0000E+000  
  397.50  0.0000E+000  
  398.00  0.0000E+000  
  398.50  0.0000E+000  
  399.00  0.0000E+000  
  399.50  0.0000E+000  
  400.00  7.9423E-007  
  400.50  3.0462E-005  
  401.00  7.8116E-005  
  401.50  7.8665E-005  
  402.00  6.4302E-005  
  402.50  8.4129E-005  
  403.00  8.1714E-005  
  403.50  1.0341E-004  
  404.00  1.5025E-004  
  404.50  1.6511E-004  
  405.00  2.0646E-004  
  405.50  1.8338E-004  
  406.00  1.3575E-004  
  406.50  1.3938E-004  
  407.00  1.6322E-004  
  407.50  2.0248E-004  
  408.00  2.3350E-004  
  408.50  1.8996E-004  
  409.00  1.1725E-004  
  409.50  1.0542E-004  
  410.00  1.5936E-004  
  410.50  2.9919E-004  
  411.00  4.1464E-004  
  411.50  5.3092E-004  
  412.00  6.0804E-004  
  412.50  6.2512E-004  
  413.00  6.0409E-004  
  413.50  5.7616E-004  
  414.00  5.9150E-004  
  414.50  6.7380E-004  
  415.00  8.1619E-004  
  415.50  9.1371E-004  
  416.00  1.0238E-003  
  416.50  1.1031E-003  
  417.00  1.1902E-003  
  417.50  1.2837E-003  
  418.00  1.4105E-003  
  418.50  1.5183E-003  
  419.00  1.6462E-003  
  419.50  1.7782E-003  
  420.00  1.9244E-003  
  420.50  2.0646E-003  
  421.00  2.1843E-003  
  421.50  2.3241E-003  
  422.00  2.4869E-003  
  422.50  2.6883E-003  
  423.00  2.8679E-003  
  423.50  3.0673E-003  
  424.00  3.2588E-003  
  424.50  3.4357E-003  
  425.00  3.6481E-003  
  425.50  3.8627E-003  
  426.00  4.1005E-003  
  426.50  4.3528E-003  
  427.00  4.6093E-003  
  427.50  4.8434E-003  
  428.00  5.1193E-003  
  428.50  5.3648E-003  
  429.00  5.6761E-003  
  429.50  6.0287E-003  
  430.00  6.3982E-003  
  430.50  6.7663E-003  
  431.00  7.0520E-003  
  431.50  7.2837E-003  
  432.00  7.5274E-003  
  432.50  7.8520E-003  
  433.00  8.2083E-003  
  433.50  8.6100E-003  
  434.00  8.9714E-003  
  434.50  9.3022E-003  
  435.00  9.6523E-003  
  435.50  9.9283E-003  
  436.00  1.0292E-002  
  436.50  1.0650E-002  
  437.00  1.1036E-002  
  437.50  1.1374E-002  
  438.00  1.1718E-002  
  438.50  1.2015E-002  
  439.00  1.2325E-002  
  439.50  1.2673E-002  
  440.00  1.3006E-002  
  440.50  1.3413E-002  
  441.00  1.3795E-002  
  441.50  1.4167E-002  
  442.00  1.4615E-002  
  442.50  1.5037E-002  
  443.00  1.5439E-002  
  443.50  1.5801E-002  
  444.00  1.6165E-002  
  444.50  1.6577E-002  
  445.00  1.7032E-002  
  445.50  1.7435E-002  
  446.00  1.7743E-002  
  446.50  1.7950E-002  
  447.00  1.8110E-002  
  447.50  1.8259E-002  
  448.00  1.8384E-002  
  448.50  1.8465E-002  
  449.00  1.8493E-002  
  449.50  1.8474E-002  
  450.00  1.8383E-002  
  450.50  1.8138E-002  
  451.00  1.7775E-002  
  451.50  1.7323E-002  
  452.00  1.6876E-002  
  452.50  1.6427E-002  
  453.00  1.5937E-002  
  453.50  1.5375E-002  
  454.00  1.4807E-002  
  454.50  1.4201E-002  
  455.00  1.3713E-002  
  455.50  1.3190E-002  
  456.00  1.2652E-002  
  456.50  1.2165E-002  
  457.00  1.1698E-002  
  457.50  1.1288E-002  
  458.00  1.0821E-002  
  458.50  1.0324E-002  
  459.00  9.9239E-003  
  459.50  9.6509E-003  
  460.00  9.4957E-003  
  460.50  9.2664E-003  
  461.00  9.0357E-003  
  461.50  8.7886E-003  
  462.00  8.6103E-003  
  462.50  8.4898E-003  
  463.00  8.2941E-003  
  463.50  8.1216E-003  
  464.00  7.9673E-003  
  464.50  7.8367E-003  
  465.00  7.7659E-003  
  465.50  7.6502E-003  
  466.00  7.4914E-003  
  466.50  7.3185E-003  
  467.00  7.1615E-003  
  467.50  7.0028E-003  
  468.00  6.8582E-003  
  468.50  6.7389E-003  
  469.00  6.6163E-003  
  469.50  6.5198E-003  
  470.00  6.3513E-003  
  470.50  6.1790E-003  
  471.00  6.0204E-003  
  471.50  5.8794E-003  
  472.00  5.7437E-003  
  472.50  5.6722E-003  
  473.00  5.5969E-003  
  473.50  5.5691E-003  
  474.00  5.5231E-003  
  474.50  5.4320E-003  
  475.00  5.3205E-003  
  475.50  5.2621E-003  
  476.00  5.1993E-003  
  476.50  5.2226E-003  
  477.00  5.2423E-003  
  477.50  5.2267E-003  
  478.00  5.2018E-003  
  478.50  5.2341E-003  
  479.00  5.3193E-003  
  479.50  5.4054E-003  
  480.00  5.4742E-003  
  480.50  5.4732E-003  
  481.00  5.4798E-003  
  481.50  5.5451E-003  
  482.00  5.6122E-003  
  482.50  5.7133E-003  
  483.00  5.7687E-003  
  483.50  5.8554E-003  
  484.00  5.9542E-003  
  484.50  6.0671E-003  
  485.00  6.1812E-003  
  485.50  6.2856E-003  
  486.00  6.4101E-003  
  486.50  6.5441E-003  
  487.00  6.6755E-003  
  487.50  6.8080E-003  
  488.00  6.9356E-003  
  488.50  7.0961E-003  
  489.00  7.2669E-003  
  489.50  7.4077E-003  
  490.00  7.5940E-003  
  490.50  7.7877E-003  
  491.00  8.0239E-003  
  491.50  8.2829E-003  
  492.00  8.5339E-003  
  492.50  8.8025E-003  
  493.00  9.0685E-003  
  493.50  9.3204E-003  
  494.00  9.5351E-003  
  494.50  9.7416E-003  
  495.00  9.9824E-003  
  495.50  1.0250E-002  
  496.00  1.0535E-002  
  496.50  1.0835E-002  
  497.00  1.1122E-002  
  497.50  1.1448E-002  
  498.00  1.1770E-002  
  498.50  1.2058E-002  
  499.00  1.2385E-002  
  499.50  1.2688E-002  
  500.00  1.3034E-002  
  500.50  1.3351E-002  
  501.00  1.3627E-002  
  501.50  1.3899E-002  
  502.00  1.4242E-002  
  502.50  1.4577E-002  
  503.00  1.4898E-002  
  503.50  1.5165E-002  
  504.00  1.5433E-002  
  504.50  1.5770E-002  
  505.00  1.6109E-002  
  505.50  1.6411E-002  
  506.00  1.6670E-002  
  506.50  1.6909E-002  
  507.00  1.7163E-002  
  507.50  1.7402E-002  
  508.00  1.7668E-002  
  508.50  1.7916E-002  
  509.00  1.8208E-002  
  509.50  1.8497E-002  
  510.00  1.8797E-002  
  510.50  1.9064E-002  
  511.00  1.9323E-002  
  511.50  1.9538E-002  
  512.00  1.9808E-002  
  512.50  2.0057E-002  
  513.00  2.0332E-002  
  513.50  2.0561E-002  
  514.00  2.0757E-002  
  514.50  2.0956E-002  
  515.00  2.1125E-002  
  515.50  2.1365E-002  
  516.00  2.1593E-002  
  516.50  2.1852E-002  
  517.00  2.2075E-002  
  517.50  2.2282E-002  
  518.00  2.2433E-002  
  518.50  2.2561E-002  
  519.00  2.2733E-002  
  519.50  2.2980E-002  
  520.00  2.3234E-002  
  520.50  2.3468E-002  
  521.00  2.3643E-002  
  521.50  2.3811E-002  
  522.00  2.4004E-002  
  522.50  2.4154E-002  
  523.00  2.4276E-002  
  523.50  2.4453E-002  
  524.00  2.4600E-002  
  524.50  2.4764E-002  
  525.00  2.4892E-002  
  525.50  2.5019E-002  
  526.00  2.5147E-002  
  526.50  2.5310E-002  
  527.00  2.5444E-002  
  527.50  2.5592E-002  
  528.00  2.5733E-002  
  528.50  2.5823E-002  
  529.00  2.5944E-002  
  529.50  2.6030E-002  
  530.00  2.6113E-002  
  530.50  2.6176E-002  
  531.00  2.6284E-002  
  531.50  2.6403E-002  
  532.00  2.6552E-002  
  532.50  2.6763E-002  
  533.00  2.6921E-002  
  533.50  2.7065E-002  
  534.00  2.7072E-002  
  534.50  2.7102E-002  
  535.00  2.7216E-002  
  535.50  2.7376E-002  
  536.00  2.7535E-002  
  536.50  2.7614E-002  
  537.00  2.7691E-002  
  537.50  2.7803E-002  
  538.00  2.7934E-002  
  538.50  2.8100E-002  
  539.00  2.8205E-002  
  539.50  2.8316E-002  
  540.00  2.8476E-002  
  540.50  2.8612E-002  
  541.00  2.8754E-002  
  541.50  2.8847E-002  
  542.00  2.8955E-002  
  542.50  2.9081E-002  
  543.00  2.9231E-002  
  543.50  2.9389E-002  
  544.00  2.9580E-002  
  544.50  2.9741E-002  
  545.00  2.9901E-002  
  545.50  3.0001E-002  
  546.00  3.0075E-002  
  546.50  3.0092E-002  
  547.00  3.0208E-002  
  547.50  3.0335E-002  
  548.00  3.0527E-002  
  548.50  3.0669E-002  
  549.00  3.0806E-002  
  549.50  3.0938E-002  
  550.00  3.1093E-002  
  550.50  3.1280E-002  
  551.00  3.1447E-002  
  551.50  3.1618E-002  
  552.00  3.1769E-002  
  552.50  3.2014E-002  
  553.00  3.2254E-002  
  553.50  3.2454E-002  
  554.00  3.2549E-002  
  554.50  3.2644E-002  
  555.00  3.2773E-002  
  555.50  3.2999E-002  
  556.00  3.3170E-002  
  556.50  3.3355E-002  
  557.00  3.3478E-002  
  557.50  3.3685E-002  
  558.00  3.3887E-002  
  558.50  3.4113E-002  
  559.00  3.4349E-002  
  559.50  3.4528E-002  
  560.00  3.4728E-002  
  560.50  3.4892E-002  
  561.00  3.5081E-002  
  561.50  3.5225E-002  
  562.00  3.5409E-002  
  562.50  3.5571E-002  
  563.00  3.5763E-002  
  563.50  3.5947E-002  
  564.00  3.6139E-002  
  564.50  3.6330E-002  
  565.00  3.6493E-002  
  565.50  3.6709E-002  
  566.00  3.6920E-002  
  566.50  3.7197E-002  
  567.00  3.7357E-002  
  567.50  3.7537E-002  
  568.00  3.7779E-002  
  568.50  3.8014E-002  
  569.00  3.8232E-002  
  569.50  3.8355E-002  
  570.00  3.8496E-002  
  570.50  3.8666E-002  
  571.00  3.8883E-002  
  571.50  3.9109E-002  
  572.00  3.9335E-002  
  572.50  3.9562E-002  
  573.00  3.9770E-002  
  573.50  4.0066E-002  
  574.00  4.0275E-002  
  574.50  4.0484E-002  
  575.00  4.0679E-002  
  575.50  4.0915E-002  
  576.00  4.1198E-002  
  576.50  4.1443E-002  
  577.00  4.1607E-002  
  577.50  4.1839E-002  
  578.00  4.2035E-002  
  578.50  4.2244E-002  
  579.00  4.2396E-002  
  579.50  4.2561E-002  
  580.00  4.2833E-002  
  580.50  4.3130E-002  
  581.00  4.3352E-002  
  581.50  4.3542E-002  
  582.00  4.3743E-002  
  582.50  4.3944E-002  
  583.00  4.4123E-002  
  583.50  4.4342E-002  
  584.00  4.4531E-002  
  584.50  4.4674E-002  
  585.00  4.4752E-002  
  585.50  4.4866E-002  
  586.00  4.5180E-002  
  586.50  4.5498E-002  
  587.00  4.5825E-002  
  587.50  4.5964E-002  
  588.00  4.6067E-002  
  588.50  4.6246E-002  
  589.00  4.6407E-002  
  589.50  4.6592E-002  
  590.00  4.6732E-002  
  590.50  4.6835E-002  
  591.00  4.6969E-002  
  591.50  4.7107E-002  
  592.00  4.7246E-002  
  592.50  4.7371E-002  
  593.00  4.7390E-002  
  593.50  4.7414E-002  
  594.00  4.7584E-002  
  594.50  4.7849E-002  
  595.00  4.8084E-002  
  595.50  4.8199E-002  
  596.00  4.8243E-002  
  596.50  4.8373E-002  
  597.00  4.8524E-002  
  597.50  4.8593E-002  
  598.00  4.8561E-002  
  598.50  4.8557E-002  
  599.00  4.8647E-002  
  599.50  4.8771E-002  
  600.00  4.8819E-002  
  600.50  4.8858E-002  
  601.00  4.8908E-002  
  601.50  4.9064E-002  
  602.00  4.9134E-002  
  602.50  4.9245E-002  
  603.00  4.9229E-002  
  603.50  4.9158E-002  
  604.00  4.9102E-002  
  604.50  4.9056E-002  
  605.00  4.9065E-002  
  605.50  4.9029E-002  
  606.00  4.8989E-002  
  606.50  4.9096E-002  
  607.00  4.9144E-002  
  607.50  4.9177E-002  
  608.00  4.9101E-002  
  608.50  4.8968E-002  
  609.00  4.8866E-002  
  609.50  4.8858E-002  
  610.00  4.8864E-002  
  610.50  4.8847E-002  
  611.00  4.8716E-002  
  611.50  4.8542E-002  
  612.00  4.8453E-002  
  612.50  4.8359E-002  
  613.00  4.8293E-002  
  613.50  4.8221E-002  
  614.00  4.8084E-002  
  614.50  4.7964E-002  
  615.00  4.7852E-002  
  615.50  4.7784E-002  
  616.00  4.7730E-002  
  616.50  4.7611E-002  
  617.00  4.7448E-002  
  617.50  4.7283E-002  
  618.00  4.7024E-002  
  618.50  4.6872E-002  
  619.00  4.6631E-002  
  619.50  4.6555E-002  
  620.00  4.6455E-002  
  620.50  4.6338E-002  
  621.00  4.6252E-002  
  621.50  4.6021E-002  
  622.00  4.5875E-002  
  622.50  4.5620E-002  
  623.00  4.5405E-002  
  623.50  4.5226E-002  
  624.00  4.4994E-002  
  624.50  4.4754E-002  
  625.00  4.4492E-002  
  625.50  4.4343E-002  
  626.00  4.4181E-002  
  626.50  4.4001E-002  
  627.00  4.3733E-002  
  627.50  4.3478E-002  
  628.00  4.3146E-002  
  628.50  4.2840E-002  
  629.00  4.2615E-002  
  629.50  4.2519E-002  
  630.00  4.2417E-002  
  630.50  4.2125E-002  
  631.00  4.1762E-002  
  631.50  4.1468E-002  
  632.00  4.1272E-002  
  632.50  4.1080E-002  
  633.00  4.0848E-002  
  633.50  4.0612E-002  
  634.00  4.0472E-002  
  634.50  4.0214E-002  
  635.00  3.9928E-002  
  635.50  3.9541E-002  
  636.00  3.9202E-002  
  636.50  3.8870E-002  
  637.00  3.8554E-002  
  637.50  3.8273E-002  
  638.00  3.7970E-002  
  638.50  3.7656E-002  
  639.00  3.7345E-002  
  639.50  3.7103E-002  
  640.00  3.6867E-002  
  640.50  3.6576E-002  
  641.00  3.6247E-002  
  641.50  3.5941E-002  
  642.00  3.5651E-002  
  642.50  3.5380E-002  
  643.00  3.5046E-002  
  643.50  3.4740E-002  
  644.00  3.4447E-002  
  644.50  3.4256E-002  
  645.00  3.4045E-002  
  645.50  3.3797E-002  
  646.00  3.3479E-002  
  646.50  3.3084E-002  
  647.00  3.2776E-002  
  647.50  3.2532E-002  
  648.00  3.2315E-002  
  648.50  3.2054E-002  
  649.00  3.1630E-002  
  649.50  3.1257E-002  
  650.00  3.0911E-002  
  650.50  3.0568E-002  
  651.00  3.0188E-002  
  651.50  2.9813E-002  
  652.00  2.9481E-002  
  652.50  2.9226E-002  
  653.00  2.8938E-002  
  653.50  2.8761E-002  
  654.00  2.8548E-002  
  654.50  2.8283E-002  
  655.00  2.7986E-002  
  655.50  2.7687E-002  
  656.00  2.7456E-002  
  656.50  2.7158E-002  
  657.00  2.6862E-002  
  657.50  2.6564E-002  
  658.00  2.6266E-002  
  658.50  2.5907E-002  
  659.00  2.5564E-002  
  659.50  2.5253E-002  
  660.00  2.4987E-002  
  660.50  2.4748E-002  
  661.00  2.4506E-002  
  661.50  2.4233E-002  
  662.00  2.3945E-002  
  662.50  2.3677E-002  
  663.00  2.3480E-002  
  663.50  2.3223E-002  
  664.00  2.2914E-002  
  664.50  2.2628E-002  
  665.00  2.2364E-002  
  665.50  2.2106E-002  
  666.00  2.1791E-002  
  666.50  2.1509E-002  
  667.00  2.1218E-002  
  667.50  2.0933E-002  
  668.00  2.0664E-002  
  668.50  2.0453E-002  
  669.00  2.0198E-002  
  669.50  1.9966E-002  
  670.00  1.9694E-002  
  670.50  1.9488E-002  
  671.00  1.9184E-002  
  671.50  1.8940E-002  
  672.00  1.8708E-002  
  672.50  1.8508E-002  
  673.00  1.8292E-002  
  673.50  1.7973E-002  
  674.00  1.7663E-002  
  674.50  1.7397E-002  
  675.00  1.7214E-002  
  675.50  1.7065E-002  
  676.00  1.6868E-002  
  676.50  1.6665E-002  
  677.00  1.6475E-002  
  677.50  1.6282E-002  
  678.00  1.6051E-002  
  678.50  1.5737E-002  
  679.00  1.5508E-002  
  679.50  1.5313E-002  
