
# From lspdd.org
# 
# Name: Halo Standard PAR30 Accubeam Domestique
# Indice spectral Valeur 
# MSI 0.30 
# SLI 0.51 
# IPI 0.93 
# Pourcentage de bleu 13.0 
# Caractéristique Valeur 
# CCT calculée (K) 2688 
# CCT du fabricant (K) ND 
# Tension (V) 130 
# Puissance (W) 75.0 
# Efficacité lumineuse (Lum/W) ND 
#
# Image: '/app/system/img_2s/2569/medium_image2.JPG?1413486378'
# Image: '/app/system/img_1s/2569/medium_image1.JPG?1413486382'
# 

  273.00  0.0000E+000  
  273.50  0.0000E+000  
  274.00  0.0000E+000  
  274.50  0.0000E+000  
  275.00  0.0000E+000  
  275.50  0.0000E+000  
  276.00  0.0000E+000  
  276.50  0.0000E+000  
  277.00  0.0000E+000  
  277.50  0.0000E+000  
  278.00  0.0000E+000  
  278.50  0.0000E+000  
  279.00  0.0000E+000  
  279.50  0.0000E+000  
  280.00  0.0000E+000  
  280.50  0.0000E+000  
  281.00  0.0000E+000  
  281.50  0.0000E+000  
  282.00  0.0000E+000  
  282.50  0.0000E+000  
  283.00  0.0000E+000  
  283.50  0.0000E+000  
  284.00  0.0000E+000  
  284.50  0.0000E+000  
  285.00  0.0000E+000  
  285.50  0.0000E+000  
  286.00  0.0000E+000  
  286.50  0.0000E+000  
  287.00  0.0000E+000  
  287.50  0.0000E+000  
  288.00  0.0000E+000  
  288.50  0.0000E+000  
  289.00  0.0000E+000  
  289.50  0.0000E+000  
  290.00  0.0000E+000  
  290.50  0.0000E+000  
  291.00  0.0000E+000  
  291.50  0.0000E+000  
  292.00  0.0000E+000  
  292.50  0.0000E+000  
  293.00  0.0000E+000  
  293.50  0.0000E+000  
  294.00  0.0000E+000  
  294.50  0.0000E+000  
  295.00  0.0000E+000  
  295.50  0.0000E+000  
  296.00  0.0000E+000  
  296.50  0.0000E+000  
  297.00  0.0000E+000  
  297.50  0.0000E+000  
  298.00  0.0000E+000  
  298.50  0.0000E+000  
  299.00  0.0000E+000  
  299.50  0.0000E+000  
  300.00  0.0000E+000  
  300.50  0.0000E+000  
  301.00  0.0000E+000  
  301.50  0.0000E+000  
  302.00  0.0000E+000  
  302.50  0.0000E+000  
  303.00  7.4395E-006  
  303.50  5.3806E-005  
  304.00  7.8978E-005  
  304.50  5.6552E-005  
  305.00  1.8808E-005  
  305.50  1.4012E-006  
  306.00  0.0000E+000  
  306.50  0.0000E+000  
  307.00  0.0000E+000  
  307.50  5.8059E-006  
  308.00  1.2072E-005  
  308.50  2.4251E-005  
  309.00  3.5536E-005  
  309.50  1.5849E-005  
  310.00  2.9927E-005  
  310.50  3.3382E-005  
  311.00  3.3194E-005  
  311.50  0.0000E+000  
  312.00  0.0000E+000  
  312.50  0.0000E+000  
  313.00  6.1403E-006  
  313.50  1.9081E-005  
  314.00  1.0534E-006  
  314.50  1.6130E-005  
  315.00  6.8392E-005  
  315.50  1.2542E-004  
  316.00  1.8693E-004  
  316.50  2.0581E-004  
  317.00  1.7098E-004  
  317.50  1.7491E-004  
  318.00  1.5673E-004  
  318.50  1.3199E-004  
  319.00  9.5682E-005  
  319.50  7.6584E-005  
  320.00  1.0322E-004  
  320.50  1.0700E-004  
  321.00  1.4451E-004  
  321.50  1.7425E-004  
  322.00  2.3659E-004  
  322.50  2.2999E-004  
  323.00  2.2528E-004  
  323.50  1.9738E-004  
  324.00  1.3756E-004  
  324.50  1.6525E-004  
  325.00  1.2963E-004  
  325.50  1.2164E-004  
  326.00  1.0511E-004  
  326.50  1.2080E-004  
  327.00  1.4870E-004  
  327.50  1.4336E-004  
  328.00  1.1206E-004  
  328.50  3.3614E-005  
  329.00  2.9570E-005  
  329.50  3.8851E-005  
  330.00  6.7186E-005  
  330.50  1.2525E-004  
  331.00  1.7675E-004  
  331.50  2.3687E-004  
  332.00  2.7780E-004  
  332.50  2.7232E-004  
  333.00  2.5715E-004  
  333.50  2.6721E-004  
  334.00  3.0105E-004  
  334.50  3.2387E-004  
  335.00  3.1619E-004  
  335.50  2.9783E-004  
  336.00  3.1219E-004  
  336.50  3.8722E-004  
  337.00  4.4060E-004  
  337.50  4.6049E-004  
  338.00  4.2493E-004  
  338.50  3.7896E-004  
  339.00  3.6486E-004  
  339.50  4.1326E-004  
  340.00  4.6212E-004  
  340.50  5.4333E-004  
  341.00  5.6400E-004  
  341.50  5.2974E-004  
  342.00  5.2153E-004  
  342.50  4.9982E-004  
  343.00  4.9811E-004  
  343.50  5.3396E-004  
  344.00  5.5414E-004  
  344.50  5.4129E-004  
  345.00  5.5602E-004  
  345.50  5.4675E-004  
  346.00  5.4135E-004  
  346.50  5.8440E-004  
  347.00  6.0046E-004  
  347.50  6.1918E-004  
  348.00  6.7102E-004  
  348.50  7.3430E-004  
  349.00  7.5837E-004  
  349.50  7.0728E-004  
  350.00  6.5353E-004  
  350.50  6.2127E-004  
  351.00  6.1893E-004  
  351.50  6.7022E-004  
  352.00  6.6930E-004  
  352.50  6.8740E-004  
  353.00  7.1946E-004  
  353.50  7.0795E-004  
  354.00  7.3805E-004  
  354.50  6.8226E-004  
  355.00  6.4199E-004  
  355.50  6.6689E-004  
  356.00  6.9550E-004  
  356.50  7.6017E-004  
  357.00  8.2629E-004  
  357.50  8.4551E-004  
  358.00  8.7539E-004  
  358.50  9.0005E-004  
  359.00  9.2227E-004  
  359.50  9.4837E-004  
  360.00  9.5594E-004  
  360.50  1.0100E-003  
  361.00  1.0782E-003  
  361.50  1.1044E-003  
  362.00  1.1452E-003  
  362.50  1.2029E-003  
  363.00  1.2321E-003  
  363.50  1.2698E-003  
  364.00  1.3149E-003  
  364.50  1.2487E-003  
  365.00  1.2007E-003  
  365.50  1.1370E-003  
  366.00  1.0602E-003  
  366.50  1.0650E-003  
  367.00  1.1144E-003  
  367.50  1.1803E-003  
  368.00  1.2615E-003  
  368.50  1.3456E-003  
  369.00  1.3674E-003  
  369.50  1.3776E-003  
  370.00  1.3475E-003  
  370.50  1.3495E-003  
  371.00  1.3572E-003  
  371.50  1.4068E-003  
  372.00  1.4545E-003  
  372.50  1.4851E-003  
  373.00  1.5421E-003  
  373.50  1.5196E-003  
  374.00  1.4995E-003  
  374.50  1.4744E-003  
  375.00  1.4883E-003  
  375.50  1.5585E-003  
  376.00  1.6680E-003  
  376.50  1.7520E-003  
  377.00  1.8386E-003  
  377.50  1.8622E-003  
  378.00  1.8424E-003  
  378.50  1.8361E-003  
  379.00  1.8119E-003  
  379.50  1.8646E-003  
  380.00  1.8821E-003  
  380.50  1.9154E-003  
  381.00  1.9822E-003  
  381.50  1.9814E-003  
  382.00  2.0014E-003  
  382.50  1.9930E-003  
  383.00  1.9675E-003  
  383.50  1.9676E-003  
  384.00  1.9692E-003  
  384.50  2.0114E-003  
  385.00  2.0543E-003  
  385.50  2.1522E-003  
  386.00  2.2163E-003  
  386.50  2.2369E-003  
  387.00  2.2953E-003  
  387.50  2.3126E-003  
  388.00  2.2905E-003  
  388.50  2.3093E-003  
  389.00  2.2594E-003  
  389.50  2.2761E-003  
  390.00  2.3414E-003  
  390.50  2.3789E-003  
  391.00  2.4731E-003  
  391.50  2.4815E-003  
  392.00  2.4800E-003  
  392.50  2.4777E-003  
  393.00  2.4972E-003  
  393.50  2.5586E-003  
  394.00  2.5943E-003  
  394.50  2.6307E-003  
  395.00  2.6425E-003  
  395.50  2.6845E-003  
  396.00  2.6950E-003  
  396.50  2.7321E-003  
  397.00  2.7880E-003  
  397.50  2.8455E-003  
  398.00  2.9024E-003  
  398.50  2.9136E-003  
  399.00  2.8716E-003  
  399.50  2.8666E-003  
  400.00  2.9121E-003  
  400.50  2.9514E-003  
  401.00  3.0065E-003  
  401.50  3.0455E-003  
  402.00  3.0989E-003  
  402.50  3.1709E-003  
  403.00  3.2131E-003  
  403.50  3.2800E-003  
  404.00  3.3249E-003  
  404.50  3.3320E-003  
  405.00  3.3174E-003  
  405.50  3.2778E-003  
  406.00  3.2953E-003  
  406.50  3.3546E-003  
  407.00  3.4502E-003  
  407.50  3.5341E-003  
  408.00  3.5947E-003  
  408.50  3.6215E-003  
  409.00  3.5991E-003  
  409.50  3.5955E-003  
  410.00  3.6041E-003  
  410.50  3.6856E-003  
  411.00  3.7477E-003  
  411.50  3.8204E-003  
  412.00  3.8725E-003  
  412.50  3.8751E-003  
  413.00  3.8765E-003  
  413.50  3.8883E-003  
  414.00  3.9068E-003  
  414.50  3.9427E-003  
  415.00  4.0038E-003  
  415.50  4.0464E-003  
  416.00  4.1492E-003  
  416.50  4.2328E-003  
  417.00  4.2916E-003  
  417.50  4.3252E-003  
  418.00  4.3431E-003  
  418.50  4.3418E-003  
  419.00  4.3842E-003  
  419.50  4.4586E-003  
  420.00  4.5485E-003  
  420.50  4.6699E-003  
  421.00  4.7225E-003  
  421.50  4.7207E-003  
  422.00  4.7360E-003  
  422.50  4.7657E-003  
  423.00  4.7895E-003  
  423.50  4.8606E-003  
  424.00  4.9188E-003  
  424.50  4.9318E-003  
  425.00  5.0024E-003  
  425.50  5.0381E-003  
  426.00  5.0371E-003  
  426.50  5.0526E-003  
  427.00  5.0372E-003  
  427.50  5.0692E-003  
  428.00  5.2024E-003  
  428.50  5.2559E-003  
  429.00  5.3194E-003  
  429.50  5.3743E-003  
  430.00  5.4078E-003  
  430.50  5.4660E-003  
  431.00  5.4749E-003  
  431.50  5.4408E-003  
  432.00  5.4436E-003  
  432.50  5.4842E-003  
  433.00  5.5972E-003  
  433.50  5.6954E-003  
  434.00  5.7591E-003  
  434.50  5.7969E-003  
  435.00  5.8189E-003  
  435.50  5.9034E-003  
  436.00  6.0338E-003  
  436.50  6.1070E-003  
  437.00  6.1572E-003  
  437.50  6.1383E-003  
  438.00  6.1751E-003  
  438.50  6.2383E-003  
  439.00  6.2737E-003  
  439.50  6.3114E-003  
  440.00  6.3068E-003  
  440.50  6.3526E-003  
  441.00  6.4057E-003  
  441.50  6.4545E-003  
  442.00  6.5986E-003  
  442.50  6.6560E-003  
  443.00  6.7106E-003  
  443.50  6.7667E-003  
  444.00  6.8220E-003  
  444.50  6.9309E-003  
  445.00  7.0006E-003  
  445.50  7.0176E-003  
  446.00  7.0618E-003  
  446.50  7.0988E-003  
  447.00  7.0865E-003  
  447.50  7.0669E-003  
  448.00  7.0808E-003  
  448.50  7.1679E-003  
  449.00  7.2824E-003  
  449.50  7.4134E-003  
  450.00  7.4877E-003  
  450.50  7.5739E-003  
  451.00  7.6198E-003  
  451.50  7.6671E-003  
  452.00  7.7413E-003  
  452.50  7.8053E-003  
  453.00  7.8887E-003  
  453.50  7.8875E-003  
  454.00  7.9036E-003  
  454.50  7.8677E-003  
  455.00  7.9009E-003  
  455.50  7.9394E-003  
  456.00  7.9864E-003  
  456.50  8.0797E-003  
  457.00  8.2183E-003  
  457.50  8.3953E-003  
  458.00  8.5183E-003  
  458.50  8.5971E-003  
  459.00  8.6366E-003  
  459.50  8.6927E-003  
  460.00  8.7746E-003  
  460.50  8.8842E-003  
  461.00  8.9953E-003  
  461.50  9.0858E-003  
  462.00  9.1331E-003  
  462.50  9.1467E-003  
  463.00  9.1706E-003  
  463.50  9.2087E-003  
  464.00  9.2307E-003  
  464.50  9.3500E-003  
  465.00  9.4918E-003  
  465.50  9.5700E-003  
  466.00  9.5986E-003  
  466.50  9.5844E-003  
  467.00  9.5944E-003  
  467.50  9.6464E-003  
  468.00  9.7005E-003  
  468.50  9.7174E-003  
  469.00  9.7832E-003  
  469.50  9.8957E-003  
  470.00  9.9727E-003  
  470.50  1.0117E-002  
  471.00  1.0120E-002  
  471.50  1.0118E-002  
  472.00  1.0202E-002  
  472.50  1.0306E-002  
  473.00  1.0425E-002  
  473.50  1.0538E-002  
  474.00  1.0571E-002  
  474.50  1.0671E-002  
  475.00  1.0746E-002  
  475.50  1.0818E-002  
  476.00  1.0871E-002  
  476.50  1.0945E-002  
  477.00  1.1049E-002  
  477.50  1.1152E-002  
  478.00  1.1205E-002  
  478.50  1.1233E-002  
  479.00  1.1284E-002  
  479.50  1.1350E-002  
  480.00  1.1451E-002  
  480.50  1.1544E-002  
  481.00  1.1567E-002  
  481.50  1.1601E-002  
  482.00  1.1655E-002  
  482.50  1.1747E-002  
  483.00  1.1874E-002  
  483.50  1.1966E-002  
  484.00  1.2033E-002  
  484.50  1.2128E-002  
  485.00  1.2217E-002  
  485.50  1.2293E-002  
  486.00  1.2323E-002  
  486.50  1.2353E-002  
  487.00  1.2391E-002  
  487.50  1.2482E-002  
  488.00  1.2585E-002  
  488.50  1.2673E-002  
  489.00  1.2777E-002  
  489.50  1.2828E-002  
  490.00  1.2886E-002  
  490.50  1.2930E-002  
  491.00  1.3008E-002  
  491.50  1.3092E-002  
  492.00  1.3204E-002  
  492.50  1.3315E-002  
  493.00  1.3438E-002  
  493.50  1.3558E-002  
  494.00  1.3605E-002  
  494.50  1.3634E-002  
  495.00  1.3655E-002  
  495.50  1.3746E-002  
  496.00  1.3844E-002  
  496.50  1.3993E-002  
  497.00  1.4126E-002  
  497.50  1.4265E-002  
  498.00  1.4353E-002  
  498.50  1.4396E-002  
  499.00  1.4488E-002  
  499.50  1.4584E-002  
  500.00  1.4724E-002  
  500.50  1.4801E-002  
  501.00  1.4895E-002  
  501.50  1.5002E-002  
  502.00  1.5145E-002  
  502.50  1.5282E-002  
  503.00  1.5386E-002  
  503.50  1.5495E-002  
  504.00  1.5644E-002  
  504.50  1.5772E-002  
  505.00  1.5891E-002  
  505.50  1.5982E-002  
  506.00  1.6113E-002  
  506.50  1.6231E-002  
  507.00  1.6323E-002  
  507.50  1.6375E-002  
  508.00  1.6460E-002  
  508.50  1.6580E-002  
  509.00  1.6702E-002  
  509.50  1.6822E-002  
  510.00  1.6911E-002  
  510.50  1.7048E-002  
  511.00  1.7224E-002  
  511.50  1.7389E-002  
  512.00  1.7563E-002  
  512.50  1.7699E-002  
  513.00  1.7846E-002  
  513.50  1.7997E-002  
  514.00  1.8100E-002  
  514.50  1.8157E-002  
  515.00  1.8217E-002  
  515.50  1.8326E-002  
  516.00  1.8493E-002  
  516.50  1.8703E-002  
  517.00  1.8862E-002  
  517.50  1.9015E-002  
  518.00  1.9146E-002  
  518.50  1.9256E-002  
  519.00  1.9386E-002  
  519.50  1.9499E-002  
  520.00  1.9617E-002  
  520.50  1.9716E-002  
  521.00  1.9857E-002  
  521.50  2.0003E-002  
  522.00  2.0143E-002  
  522.50  2.0324E-002  
  523.00  2.0500E-002  
  523.50  2.0708E-002  
  524.00  2.0843E-002  
  524.50  2.0954E-002  
  525.00  2.1106E-002  
  525.50  2.1275E-002  
  526.00  2.1421E-002  
  526.50  2.1565E-002  
  527.00  2.1715E-002  
  527.50  2.1873E-002  
  528.00  2.2018E-002  
  528.50  2.2153E-002  
  529.00  2.2273E-002  
  529.50  2.2353E-002  
  530.00  2.2440E-002  
  530.50  2.2585E-002  
  531.00  2.2815E-002  
  531.50  2.2998E-002  
  532.00  2.3148E-002  
  532.50  2.3313E-002  
  533.00  2.3478E-002  
  533.50  2.3656E-002  
  534.00  2.3767E-002  
  534.50  2.3869E-002  
  535.00  2.3956E-002  
  535.50  2.4076E-002  
  536.00  2.4247E-002  
  536.50  2.4389E-002  
  537.00  2.4515E-002  
  537.50  2.4563E-002  
  538.00  2.4696E-002  
  538.50  2.4885E-002  
  539.00  2.5120E-002  
  539.50  2.5327E-002  
  540.00  2.5514E-002  
  540.50  2.5686E-002  
  541.00  2.5807E-002  
  541.50  2.5959E-002  
  542.00  2.6072E-002  
  542.50  2.6191E-002  
  543.00  2.6377E-002  
  543.50  2.6507E-002  
  544.00  2.6654E-002  
  544.50  2.6781E-002  
  545.00  2.6941E-002  
  545.50  2.7130E-002  
  546.00  2.7254E-002  
  546.50  2.7339E-002  
  547.00  2.7439E-002  
  547.50  2.7551E-002  
  548.00  2.7703E-002  
  548.50  2.7879E-002  
  549.00  2.8047E-002  
  549.50  2.8209E-002  
  550.00  2.8298E-002  
  550.50  2.8437E-002  
  551.00  2.8579E-002  
  551.50  2.8772E-002  
  552.00  2.8958E-002  
  552.50  2.9112E-002  
  553.00  2.9256E-002  
  553.50  2.9442E-002  
  554.00  2.9612E-002  
  554.50  2.9784E-002  
  555.00  2.9890E-002  
  555.50  2.9988E-002  
  556.00  3.0086E-002  
  556.50  3.0175E-002  
  557.00  3.0320E-002  
  557.50  3.0531E-002  
  558.00  3.0778E-002  
  558.50  3.0969E-002  
  559.00  3.1114E-002  
  559.50  3.1277E-002  
  560.00  3.1475E-002  
  560.50  3.1639E-002  
  561.00  3.1760E-002  
  561.50  3.1872E-002  
  562.00  3.1998E-002  
  562.50  3.2096E-002  
  563.00  3.2187E-002  
  563.50  3.2312E-002  
  564.00  3.2448E-002  
  564.50  3.2591E-002  
  565.00  3.2762E-002  
  565.50  3.2886E-002  
  566.00  3.3080E-002  
  566.50  3.3190E-002  
  567.00  3.3264E-002  
  567.50  3.3273E-002  
  568.00  3.3342E-002  
  568.50  3.3451E-002  
  569.00  3.3593E-002  
  569.50  3.3709E-002  
  570.00  3.3876E-002  
  570.50  3.4115E-002  
  571.00  3.4371E-002  
  571.50  3.4531E-002  
  572.00  3.4607E-002  
  572.50  3.4619E-002  
  573.00  3.4648E-002  
  573.50  3.4715E-002  
  574.00  3.4822E-002  
  574.50  3.5012E-002  
  575.00  3.5215E-002  
  575.50  3.5432E-002  
  576.00  3.5597E-002  
  576.50  3.5713E-002  
  577.00  3.5749E-002  
  577.50  3.5817E-002  
  578.00  3.5942E-002  
  578.50  3.6120E-002  
  579.00  3.6295E-002  
  579.50  3.6371E-002  
  580.00  3.6443E-002  
  580.50  3.6548E-002  
  581.00  3.6664E-002  
  581.50  3.6854E-002  
  582.00  3.6994E-002  
  582.50  3.7118E-002  
  583.00  3.7227E-002  
  583.50  3.7303E-002  
  584.00  3.7413E-002  
  584.50  3.7489E-002  
  585.00  3.7578E-002  
  585.50  3.7741E-002  
  586.00  3.7869E-002  
  586.50  3.8036E-002  
  587.00  3.8168E-002  
  587.50  3.8276E-002  
  588.00  3.8447E-002  
  588.50  3.8555E-002  
  589.00  3.8693E-002  
  589.50  3.8745E-002  
  590.00  3.8824E-002  
  590.50  3.8910E-002  
  591.00  3.9006E-002  
  591.50  3.9060E-002  
  592.00  3.9150E-002  
  592.50  3.9348E-002  
  593.00  3.9583E-002  
  593.50  3.9665E-002  
  594.00  3.9727E-002  
  594.50  3.9761E-002  
  595.00  3.9880E-002  
  595.50  3.9914E-002  
  596.00  3.9974E-002  
  596.50  4.0096E-002  
  597.00  4.0236E-002  
  597.50  4.0337E-002  
  598.00  4.0435E-002  
  598.50  4.0536E-002  
  599.00  4.0664E-002  
  599.50  4.0755E-002  
  600.00  4.0797E-002  
  600.50  4.0828E-002  
  601.00  4.0898E-002  
  601.50  4.1027E-002  
  602.00  4.1221E-002  
  602.50  4.1351E-002  
  603.00  4.1415E-002  
  603.50  4.1483E-002  
  604.00  4.1557E-002  
  604.50  4.1670E-002  
  605.00  4.1756E-002  
  605.50  4.1862E-002  
  606.00  4.1978E-002  
  606.50  4.2127E-002  
  607.00  4.2191E-002  
  607.50  4.2220E-002  
  608.00  4.2253E-002  
  608.50  4.2369E-002  
  609.00  4.2528E-002  
  609.50  4.2664E-002  
  610.00  4.2765E-002  
  610.50  4.2808E-002  
  611.00  4.2891E-002  
  611.50  4.3016E-002  
  612.00  4.3190E-002  
  612.50  4.3318E-002  
  613.00  4.3388E-002  
  613.50  4.3497E-002  
  614.00  4.3598E-002  
  614.50  4.3642E-002  
  615.00  4.3639E-002  
  615.50  4.3601E-002  
  616.00  4.3660E-002  
  616.50  4.3751E-002  
  617.00  4.3917E-002  
  617.50  4.4051E-002  
  618.00  4.4089E-002  
  618.50  4.4154E-002  
  619.00  4.4259E-002  
  619.50  4.4408E-002  
  620.00  4.4497E-002  
  620.50  4.4503E-002  
  621.00  4.4505E-002  
  621.50  4.4524E-002  
  622.00  4.4611E-002  
  622.50  4.4698E-002  
  623.00  4.4707E-002  
  623.50  4.4684E-002  
  624.00  4.4733E-002  
  624.50  4.4897E-002  
  625.00  4.5090E-002  
  625.50  4.5230E-002  
  626.00  4.5342E-002  
  626.50  4.5375E-002  
  627.00  4.5471E-002  
  627.50  4.5548E-002  
  628.00  4.5689E-002  
  628.50  4.5783E-002  
  629.00  4.5905E-002  
  629.50  4.5977E-002  
  630.00  4.6055E-002  
  630.50  4.6144E-002  
  631.00  4.6307E-002  
  631.50  4.6398E-002  
  632.00  4.6438E-002  
  632.50  4.6406E-002  
  633.00  4.6434E-002  
  633.50  4.6528E-002  
  634.00  4.6652E-002  
  634.50  4.6698E-002  
  635.00  4.6714E-002  
  635.50  4.6685E-002  
  636.00  4.6836E-002  
  636.50  4.7003E-002  
  637.00  4.7208E-002  
  637.50  4.7302E-002  
  638.00  4.7368E-002  
  638.50  4.7438E-002  
  639.00  4.7460E-002  
  639.50  4.7473E-002  
  640.00  4.7426E-002  
  640.50  4.7377E-002  
  641.00  4.7387E-002  
  641.50  4.7488E-002  
  642.00  4.7677E-002  
  642.50  4.7828E-002  
  643.00  4.7875E-002  
  643.50  4.7952E-002  
  644.00  4.8016E-002  
  644.50  4.8177E-002  
  645.00  4.8274E-002  
  645.50  4.8334E-002  
  646.00  4.8322E-002  
  646.50  4.8349E-002  
  647.00  4.8385E-002  
  647.50  4.8352E-002  
  648.00  4.8368E-002  
  648.50  4.8497E-002  
  649.00  4.8720E-002  
  649.50  4.8808E-002  
  650.00  4.8870E-002  
  650.50  4.8928E-002  
  651.00  4.9044E-002  
  651.50  4.9097E-002  
  652.00  4.9170E-002  
  652.50  4.9220E-002  
  653.00  4.9293E-002  
  653.50  4.9305E-002  
  654.00  4.9354E-002  
  654.50  4.9335E-002  
  655.00  4.9395E-002  
  655.50  4.9423E-002  
  656.00  4.9522E-002  
  656.50  4.9517E-002  
  657.00  4.9563E-002  
  657.50  4.9616E-002  
  658.00  4.9758E-002  
  658.50  5.0020E-002  
  659.00  5.0203E-002  
  659.50  5.0309E-002  
  660.00  5.0175E-002  
  660.50  5.0106E-002  
  661.00  5.0024E-002  
  661.50  5.0021E-002  
  662.00  5.0079E-002  
  662.50  5.0259E-002  
  663.00  5.0415E-002  
  663.50  5.0473E-002  
  664.00  5.0441E-002  
  664.50  5.0399E-002  
  665.00  5.0452E-002  
  665.50  5.0476E-002  
  666.00  5.0508E-002  
  666.50  5.0617E-002  
  667.00  5.0821E-002  
  667.50  5.0980E-002  
  668.00  5.0943E-002  
  668.50  5.0902E-002  
  669.00  5.0897E-002  
  669.50  5.0895E-002  
  670.00  5.0918E-002  
  670.50  5.1022E-002  
  671.00  5.1137E-002  
  671.50  5.1156E-002  
  672.00  5.1148E-002  
  672.50  5.1189E-002  
  673.00  5.1271E-002  
  673.50  5.1306E-002  
  674.00  5.1206E-002  
  674.50  5.1187E-002  
  675.00  5.1236E-002  
  675.50  5.1391E-002  
  676.00  5.1502E-002  
  676.50  5.1515E-002  
  677.00  5.1571E-002  
  677.50  5.1644E-002  
  678.00  5.1738E-002  
  678.50  5.1760E-002  
  679.00  5.1735E-002  
  679.50  5.1768E-002  
