
# From lspdd.org
# 
# Name: Halo Globe BR38 Domestique
# Indice spectral Valeur 
# MSI 0.36 
# SLI 0.56 
# IPI 0.89 
# Pourcentage de bleu 16.2 
# Caractéristique Valeur 
# CCT calculée (K) 2953 
# CCT du fabricant (K) 2966 
# Tension (V) 120 
# Puissance (W) 89.0 
# Efficacité lumineuse (Lum/W) 19.1 
#
# Image: '/app/system/img_2s/2571/medium_image2.JPG?1413486393'
# Image: '/app/system/img_1s/2571/medium_image1.JPG?1413486397'
# 

  273.00  0.0000E+000  
  273.50  0.0000E+000  
  274.00  0.0000E+000  
  274.50  0.0000E+000  
  275.00  0.0000E+000  
  275.50  0.0000E+000  
  276.00  0.0000E+000  
  276.50  0.0000E+000  
  277.00  0.0000E+000  
  277.50  0.0000E+000  
  278.00  0.0000E+000  
  278.50  0.0000E+000  
  279.00  0.0000E+000  
  279.50  0.0000E+000  
  280.00  0.0000E+000  
  280.50  0.0000E+000  
  281.00  0.0000E+000  
  281.50  0.0000E+000  
  282.00  0.0000E+000  
  282.50  0.0000E+000  
  283.00  0.0000E+000  
  283.50  0.0000E+000  
  284.00  0.0000E+000  
  284.50  0.0000E+000  
  285.00  0.0000E+000  
  285.50  0.0000E+000  
  286.00  0.0000E+000  
  286.50  0.0000E+000  
  287.00  0.0000E+000  
  287.50  0.0000E+000  
  288.00  0.0000E+000  
  288.50  0.0000E+000  
  289.00  0.0000E+000  
  289.50  0.0000E+000  
  290.00  0.0000E+000  
  290.50  0.0000E+000  
  291.00  0.0000E+000  
  291.50  0.0000E+000  
  292.00  0.0000E+000  
  292.50  0.0000E+000  
  293.00  0.0000E+000  
  293.50  0.0000E+000  
  294.00  0.0000E+000  
  294.50  0.0000E+000  
  295.00  0.0000E+000  
  295.50  0.0000E+000  
  296.00  0.0000E+000  
  296.50  0.0000E+000  
  297.00  0.0000E+000  
  297.50  0.0000E+000  
  298.00  0.0000E+000  
  298.50  0.0000E+000  
  299.00  0.0000E+000  
  299.50  0.0000E+000  
  300.00  2.8843E-005  
  300.50  1.0312E-004  
  301.00  1.4014E-004  
  301.50  2.0650E-004  
  302.00  2.6500E-004  
  302.50  2.8853E-004  
  303.00  2.9260E-004  
  303.50  2.7855E-004  
  304.00  2.7081E-004  
  304.50  2.2306E-004  
  305.00  1.9094E-004  
  305.50  1.8490E-004  
  306.00  2.2224E-004  
  306.50  3.0047E-004  
  307.00  3.6717E-004  
  307.50  3.7683E-004  
  308.00  3.4194E-004  
  308.50  2.6482E-004  
  309.00  2.0048E-004  
  309.50  1.7947E-004  
  310.00  1.6732E-004  
  310.50  1.7141E-004  
  311.00  2.0159E-004  
  311.50  2.1155E-004  
  312.00  2.6231E-004  
  312.50  3.1137E-004  
  313.00  3.2692E-004  
  313.50  3.2890E-004  
  314.00  2.8021E-004  
  314.50  2.6127E-004  
  315.00  2.4933E-004  
  315.50  2.7159E-004  
  316.00  3.2154E-004  
  316.50  3.4101E-004  
  317.00  3.4243E-004  
  317.50  2.8315E-004  
  318.00  1.8693E-004  
  318.50  1.6751E-004  
  319.00  1.8207E-004  
  319.50  2.8281E-004  
  320.00  4.1215E-004  
  320.50  4.1148E-004  
  321.00  4.4207E-004  
  321.50  4.7755E-004  
  322.00  4.9811E-004  
  322.50  5.4870E-004  
  323.00  5.5231E-004  
  323.50  4.9296E-004  
  324.00  4.5399E-004  
  324.50  4.2679E-004  
  325.00  4.5138E-004  
  325.50  4.9670E-004  
  326.00  5.3698E-004  
  326.50  5.8785E-004  
  327.00  5.6941E-004  
  327.50  5.9159E-004  
  328.00  6.3502E-004  
  328.50  6.5509E-004  
  329.00  7.2834E-004  
  329.50  7.6511E-004  
  330.00  7.8758E-004  
  330.50  8.2842E-004  
  331.00  8.7210E-004  
  331.50  9.3962E-004  
  332.00  1.0082E-003  
  332.50  1.0786E-003  
  333.00  1.1570E-003  
  333.50  1.2487E-003  
  334.00  1.2626E-003  
  334.50  1.2472E-003  
  335.00  1.2105E-003  
  335.50  1.1912E-003  
  336.00  1.2185E-003  
  336.50  1.2774E-003  
  337.00  1.3428E-003  
  337.50  1.4074E-003  
  338.00  1.4740E-003  
  338.50  1.5254E-003  
  339.00  1.5721E-003  
  339.50  1.5802E-003  
  340.00  1.6295E-003  
  340.50  1.6714E-003  
  341.00  1.7607E-003  
  341.50  1.8236E-003  
  342.00  1.8412E-003  
  342.50  1.8740E-003  
  343.00  1.9168E-003  
  343.50  2.0183E-003  
  344.00  2.0935E-003  
  344.50  2.1548E-003  
  345.00  2.2044E-003  
  345.50  2.2705E-003  
  346.00  2.3465E-003  
  346.50  2.3528E-003  
  347.00  2.3751E-003  
  347.50  2.3969E-003  
  348.00  2.4443E-003  
  348.50  2.4715E-003  
  349.00  2.5393E-003  
  349.50  2.5488E-003  
  350.00  2.6221E-003  
  350.50  2.6644E-003  
  351.00  2.6619E-003  
  351.50  2.7442E-003  
  352.00  2.8545E-003  
  352.50  2.9437E-003  
  353.00  3.0223E-003  
  353.50  3.0470E-003  
  354.00  3.0441E-003  
  354.50  3.1010E-003  
  355.00  3.1955E-003  
  355.50  3.2718E-003  
  356.00  3.3743E-003  
  356.50  3.4789E-003  
  357.00  3.5537E-003  
  357.50  3.5926E-003  
  358.00  3.5809E-003  
  358.50  3.5619E-003  
  359.00  3.5651E-003  
  359.50  3.6210E-003  
  360.00  3.7157E-003  
  360.50  3.8020E-003  
  361.00  3.8753E-003  
  361.50  3.9615E-003  
  362.00  4.0013E-003  
  362.50  4.0331E-003  
  363.00  4.0678E-003  
  363.50  4.1204E-003  
  364.00  4.2352E-003  
  364.50  4.3066E-003  
  365.00  4.3822E-003  
  365.50  4.4415E-003  
  366.00  4.4723E-003  
  366.50  4.5593E-003  
  367.00  4.5921E-003  
  367.50  4.6442E-003  
  368.00  4.7211E-003  
  368.50  4.8050E-003  
  369.00  4.8521E-003  
  369.50  4.9197E-003  
  370.00  4.9469E-003  
  370.50  4.9732E-003  
  371.00  5.0170E-003  
  371.50  5.0419E-003  
  372.00  5.1297E-003  
  372.50  5.1972E-003  
  373.00  5.2584E-003  
  373.50  5.3081E-003  
  374.00  5.3441E-003  
  374.50  5.4232E-003  
  375.00  5.4789E-003  
  375.50  5.5461E-003  
  376.00  5.6005E-003  
  376.50  5.6240E-003  
  377.00  5.6885E-003  
  377.50  5.7495E-003  
  378.00  5.7809E-003  
  378.50  5.8785E-003  
  379.00  5.8833E-003  
  379.50  5.9137E-003  
  380.00  6.0350E-003  
  380.50  6.1582E-003  
  381.00  6.2901E-003  
  381.50  6.3890E-003  
  382.00  6.4706E-003  
  382.50  6.5184E-003  
  383.00  6.5803E-003  
  383.50  6.6601E-003  
  384.00  6.6907E-003  
  384.50  6.7920E-003  
  385.00  6.8888E-003  
  385.50  6.9772E-003  
  386.00  7.0649E-003  
  386.50  7.1619E-003  
  387.00  7.2477E-003  
  387.50  7.3849E-003  
  388.00  7.5098E-003  
  388.50  7.6005E-003  
  389.00  7.6857E-003  
  389.50  7.6798E-003  
  390.00  7.7094E-003  
  390.50  7.7732E-003  
  391.00  7.8406E-003  
  391.50  7.9347E-003  
  392.00  7.9841E-003  
  392.50  8.0414E-003  
  393.00  8.0588E-003  
  393.50  8.1286E-003  
  394.00  8.2430E-003  
  394.50  8.3676E-003  
  395.00  8.5144E-003  
  395.50  8.5786E-003  
  396.00  8.5767E-003  
  396.50  8.5638E-003  
  397.00  8.5905E-003  
  397.50  8.6647E-003  
  398.00  8.7630E-003  
  398.50  8.8402E-003  
  399.00  8.9042E-003  
  399.50  8.9851E-003  
  400.00  9.0504E-003  
  400.50  9.1519E-003  
  401.00  9.2657E-003  
  401.50  9.3845E-003  
  402.00  9.5141E-003  
  402.50  9.6039E-003  
  403.00  9.7331E-003  
  403.50  9.8910E-003  
  404.00  1.0002E-002  
  404.50  1.0069E-002  
  405.00  1.0069E-002  
  405.50  1.0113E-002  
  406.00  1.0204E-002  
  406.50  1.0267E-002  
  407.00  1.0300E-002  
  407.50  1.0297E-002  
  408.00  1.0364E-002  
  408.50  1.0495E-002  
  409.00  1.0657E-002  
  409.50  1.0801E-002  
  410.00  1.0898E-002  
  410.50  1.0956E-002  
  411.00  1.0994E-002  
  411.50  1.1092E-002  
  412.00  1.1162E-002  
  412.50  1.1263E-002  
  413.00  1.1426E-002  
  413.50  1.1603E-002  
  414.00  1.1725E-002  
  414.50  1.1720E-002  
  415.00  1.1697E-002  
  415.50  1.1781E-002  
  416.00  1.1978E-002  
  416.50  1.2200E-002  
  417.00  1.2304E-002  
  417.50  1.2327E-002  
  418.00  1.2346E-002  
  418.50  1.2387E-002  
  419.00  1.2519E-002  
  419.50  1.2648E-002  
  420.00  1.2783E-002  
  420.50  1.2873E-002  
  421.00  1.2933E-002  
  421.50  1.3004E-002  
  422.00  1.3100E-002  
  422.50  1.3282E-002  
  423.00  1.3488E-002  
  423.50  1.3597E-002  
  424.00  1.3674E-002  
  424.50  1.3686E-002  
  425.00  1.3763E-002  
  425.50  1.3860E-002  
  426.00  1.3917E-002  
  426.50  1.4000E-002  
  427.00  1.4133E-002  
  427.50  1.4327E-002  
  428.00  1.4558E-002  
  428.50  1.4596E-002  
  429.00  1.4605E-002  
  429.50  1.4665E-002  
  430.00  1.4766E-002  
  430.50  1.4946E-002  
  431.00  1.5031E-002  
  431.50  1.5082E-002  
  432.00  1.5221E-002  
  432.50  1.5367E-002  
  433.00  1.5521E-002  
  433.50  1.5625E-002  
  434.00  1.5691E-002  
  434.50  1.5774E-002  
  435.00  1.5891E-002  
  435.50  1.6023E-002  
  436.00  1.6197E-002  
  436.50  1.6354E-002  
  437.00  1.6555E-002  
  437.50  1.6778E-002  
  438.00  1.6937E-002  
  438.50  1.7031E-002  
  439.00  1.7032E-002  
  439.50  1.6975E-002  
  440.00  1.6944E-002  
  440.50  1.7072E-002  
  441.00  1.7290E-002  
  441.50  1.7505E-002  
  442.00  1.7684E-002  
  442.50  1.7729E-002  
  443.00  1.7840E-002  
  443.50  1.7919E-002  
  444.00  1.8062E-002  
  444.50  1.8185E-002  
  445.00  1.8334E-002  
  445.50  1.8491E-002  
  446.00  1.8661E-002  
  446.50  1.8852E-002  
  447.00  1.8933E-002  
  447.50  1.8973E-002  
  448.00  1.8983E-002  
  448.50  1.9031E-002  
  449.00  1.9161E-002  
  449.50  1.9332E-002  
  450.00  1.9498E-002  
  450.50  1.9657E-002  
  451.00  1.9770E-002  
  451.50  1.9827E-002  
  452.00  1.9924E-002  
  452.50  2.0093E-002  
  453.00  2.0247E-002  
  453.50  2.0372E-002  
  454.00  2.0482E-002  
  454.50  2.0642E-002  
  455.00  2.0797E-002  
  455.50  2.1002E-002  
  456.00  2.1124E-002  
  456.50  2.1254E-002  
  457.00  2.1387E-002  
  457.50  2.1447E-002  
  458.00  2.1590E-002  
  458.50  2.1606E-002  
  459.00  2.1782E-002  
  459.50  2.1923E-002  
  460.00  2.2109E-002  
  460.50  2.2341E-002  
  461.00  2.2516E-002  
  461.50  2.2610E-002  
  462.00  2.2697E-002  
  462.50  2.2788E-002  
  463.00  2.2956E-002  
  463.50  2.3162E-002  
  464.00  2.3266E-002  
  464.50  2.3286E-002  
  465.00  2.3411E-002  
  465.50  2.3639E-002  
  466.00  2.3899E-002  
  466.50  2.3976E-002  
  467.00  2.3970E-002  
  467.50  2.4011E-002  
  468.00  2.4166E-002  
  468.50  2.4437E-002  
  469.00  2.4640E-002  
  469.50  2.4821E-002  
  470.00  2.5003E-002  
  470.50  2.5169E-002  
  471.00  2.5379E-002  
  471.50  2.5469E-002  
  472.00  2.5535E-002  
  472.50  2.5610E-002  
  473.00  2.5777E-002  
  473.50  2.6034E-002  
  474.00  2.6173E-002  
  474.50  2.6254E-002  
  475.00  2.6255E-002  
  475.50  2.6366E-002  
  476.00  2.6540E-002  
  476.50  2.6804E-002  
  477.00  2.6999E-002  
  477.50  2.7117E-002  
  478.00  2.7127E-002  
  478.50  2.7222E-002  
  479.00  2.7455E-002  
  479.50  2.7767E-002  
  480.00  2.8072E-002  
  480.50  2.8222E-002  
  481.00  2.8327E-002  
  481.50  2.8448E-002  
  482.00  2.8629E-002  
  482.50  2.8790E-002  
  483.00  2.8960E-002  
  483.50  2.9152E-002  
  484.00  2.9244E-002  
  484.50  2.9369E-002  
  485.00  2.9356E-002  
  485.50  2.9447E-002  
  486.00  2.9563E-002  
  486.50  2.9697E-002  
  487.00  2.9863E-002  
  487.50  3.0044E-002  
  488.00  3.0201E-002  
  488.50  3.0364E-002  
  489.00  3.0542E-002  
  489.50  3.0752E-002  
  490.00  3.0936E-002  
  490.50  3.1065E-002  
  491.00  3.1147E-002  
  491.50  3.1242E-002  
  492.00  3.1394E-002  
  492.50  3.1585E-002  
  493.00  3.1822E-002  
  493.50  3.2082E-002  
  494.00  3.2305E-002  
  494.50  3.2553E-002  
  495.00  3.2727E-002  
  495.50  3.2907E-002  
  496.00  3.3001E-002  
  496.50  3.3125E-002  
  497.00  3.3293E-002  
  497.50  3.3534E-002  
  498.00  3.3762E-002  
  498.50  3.3966E-002  
  499.00  3.4164E-002  
  499.50  3.4347E-002  
  500.00  3.4575E-002  
  500.50  3.4724E-002  
  501.00  3.4906E-002  
  501.50  3.5070E-002  
  502.00  3.5308E-002  
  502.50  3.5585E-002  
  503.00  3.5825E-002  
  503.50  3.6050E-002  
  504.00  3.6242E-002  
  504.50  3.6482E-002  
  505.00  3.6724E-002  
  505.50  3.6948E-002  
  506.00  3.7138E-002  
  506.50  3.7331E-002  
  507.00  3.7571E-002  
  507.50  3.7830E-002  
  508.00  3.8022E-002  
  508.50  3.8196E-002  
  509.00  3.8434E-002  
  509.50  3.8759E-002  
  510.00  3.9155E-002  
  510.50  3.9413E-002  
  511.00  3.9611E-002  
  511.50  3.9789E-002  
  512.00  4.0089E-002  
  512.50  4.0435E-002  
  513.00  4.0715E-002  
  513.50  4.0918E-002  
  514.00  4.1077E-002  
  514.50  4.1312E-002  
  515.00  4.1580E-002  
  515.50  4.1921E-002  
  516.00  4.2259E-002  
  516.50  4.2593E-002  
  517.00  4.2876E-002  
  517.50  4.3089E-002  
  518.00  4.3335E-002  
  518.50  4.3584E-002  
  519.00  4.3888E-002  
  519.50  4.4079E-002  
  520.00  4.4315E-002  
  520.50  4.4544E-002  
  521.00  4.4824E-002  
  521.50  4.5156E-002  
  522.00  4.5451E-002  
  522.50  4.5721E-002  
  523.00  4.5952E-002  
  523.50  4.6222E-002  
  524.00  4.6530E-002  
  524.50  4.6841E-002  
  525.00  4.7154E-002  
  525.50  4.7401E-002  
  526.00  4.7720E-002  
  526.50  4.8046E-002  
  527.00  4.8340E-002  
  527.50  4.8600E-002  
  528.00  4.8792E-002  
  528.50  4.8981E-002  
  529.00  4.9257E-002  
  529.50  4.9541E-002  
  530.00  4.9912E-002  
  530.50  5.0231E-002  
  531.00  5.0529E-002  
  531.50  5.0780E-002  
  532.00  5.1005E-002  
  532.50  5.1291E-002  
  533.00  5.1609E-002  
  533.50  5.1894E-002  
  534.00  5.2117E-002  
  534.50  5.2295E-002  
  535.00  5.2493E-002  
  535.50  5.2770E-002  
  536.00  5.3003E-002  
  536.50  5.3162E-002  
  537.00  5.3361E-002  
  537.50  5.3660E-002  
  538.00  5.4054E-002  
  538.50  5.4409E-002  
  539.00  5.4709E-002  
  539.50  5.5002E-002  
  540.00  5.5266E-002  
  540.50  5.5624E-002  
  541.00  5.5877E-002  
  541.50  5.6230E-002  
  542.00  5.6543E-002  
  542.50  5.6851E-002  
  543.00  5.7152E-002  
  543.50  5.7320E-002  
  544.00  5.7539E-002  
  544.50  5.7712E-002  
  545.00  5.7946E-002  
  545.50  5.8243E-002  
  546.00  5.8513E-002  
  546.50  5.8833E-002  
  547.00  5.9112E-002  
  547.50  5.9368E-002  
  548.00  5.9637E-002  
  548.50  5.9883E-002  
  549.00  6.0115E-002  
  549.50  6.0285E-002  
  550.00  6.0468E-002  
  550.50  6.0757E-002  
  551.00  6.1084E-002  
  551.50  6.1400E-002  
  552.00  6.1656E-002  
  552.50  6.1897E-002  
  553.00  6.2208E-002  
  553.50  6.2568E-002  
  554.00  6.2872E-002  
  554.50  6.3133E-002  
  555.00  6.3308E-002  
  555.50  6.3558E-002  
  556.00  6.3810E-002  
  556.50  6.4069E-002  
  557.00  6.4341E-002  
  557.50  6.4622E-002  
  558.00  6.4867E-002  
  558.50  6.5137E-002  
  559.00  6.5373E-002  
  559.50  6.5657E-002  
  560.00  6.5979E-002  
  560.50  6.6260E-002  
  561.00  6.6598E-002  
  561.50  6.6843E-002  
  562.00  6.6976E-002  
  562.50  6.7090E-002  
  563.00  6.7259E-002  
  563.50  6.7448E-002  
  564.00  6.7622E-002  
  564.50  6.7692E-002  
  565.00  6.7828E-002  
  565.50  6.8119E-002  
  566.00  6.8490E-002  
  566.50  6.8811E-002  
  567.00  6.8991E-002  
  567.50  6.9084E-002  
  568.00  6.9329E-002  
  568.50  6.9585E-002  
  569.00  6.9818E-002  
  569.50  7.0083E-002  
  570.00  7.0257E-002  
  570.50  7.0495E-002  
  571.00  7.0714E-002  
  571.50  7.0887E-002  
  572.00  7.1138E-002  
  572.50  7.1256E-002  
  573.00  7.1478E-002  
  573.50  7.1599E-002  
  574.00  7.1788E-002  
  574.50  7.1889E-002  
  575.00  7.2111E-002  
  575.50  7.2400E-002  
  576.00  7.2702E-002  
  576.50  7.2986E-002  
  577.00  7.3138E-002  
  577.50  7.3304E-002  
  578.00  7.3406E-002  
  578.50  7.3591E-002  
  579.00  7.3803E-002  
  579.50  7.4016E-002  
  580.00  7.4193E-002  
  580.50  7.4401E-002  
  581.00  7.4445E-002  
  581.50  7.4615E-002  
  582.00  7.4733E-002  
  582.50  7.4968E-002  
  583.00  7.5149E-002  
  583.50  7.5363E-002  
  584.00  7.5610E-002  
  584.50  7.5828E-002  
  585.00  7.5931E-002  
  585.50  7.5988E-002  
  586.00  7.6133E-002  
  586.50  7.6393E-002  
  587.00  7.6566E-002  
  587.50  7.6683E-002  
  588.00  7.6865E-002  
  588.50  7.7156E-002  
  589.00  7.7459E-002  
  589.50  7.7629E-002  
  590.00  7.7772E-002  
  590.50  7.7893E-002  
  591.00  7.8034E-002  
  591.50  7.8107E-002  
  592.00  7.8202E-002  
  592.50  7.8336E-002  
  593.00  7.8462E-002  
  593.50  7.8616E-002  
  594.00  7.8763E-002  
  594.50  7.8939E-002  
  595.00  7.9234E-002  
  595.50  7.9447E-002  
  596.00  7.9620E-002  
  596.50  7.9748E-002  
  597.00  7.9893E-002  
  597.50  7.9941E-002  
  598.00  7.9945E-002  
  598.50  7.9963E-002  
  599.00  8.0176E-002  
  599.50  8.0395E-002  
  600.00  8.0586E-002  
  600.50  8.0726E-002  
  601.00  8.0740E-002  
  601.50  8.0813E-002  
  602.00  8.0912E-002  
  602.50  8.1189E-002  
  603.00  8.1339E-002  
  603.50  8.1476E-002  
  604.00  8.1506E-002  
  604.50  8.1722E-002  
  605.00  8.1988E-002  
  605.50  8.2084E-002  
  606.00  8.2062E-002  
  606.50  8.2001E-002  
  607.00  8.2214E-002  
  607.50  8.2511E-002  
  608.00  8.2772E-002  
  608.50  8.2938E-002  
  609.00  8.3088E-002  
  609.50  8.3217E-002  
  610.00  8.3287E-002  
  610.50  8.3290E-002  
  611.00  8.3344E-002  
  611.50  8.3432E-002  
  612.00  8.3587E-002  
  612.50  8.3703E-002  
  613.00  8.3653E-002  
  613.50  8.3594E-002  
  614.00  8.3636E-002  
  614.50  8.3932E-002  
  615.00  8.4318E-002  
  615.50  8.4476E-002  
  616.00  8.4521E-002  
  616.50  8.4611E-002  
  617.00  8.4658E-002  
  617.50  8.4738E-002  
  618.00  8.4805E-002  
  618.50  8.4874E-002  
  619.00  8.4944E-002  
  619.50  8.4810E-002  
  620.00  8.4810E-002  
  620.50  8.4917E-002  
  621.00  8.5124E-002  
  621.50  8.5441E-002  
  622.00  8.5693E-002  
  622.50  8.5784E-002  
  623.00  8.5728E-002  
  623.50  8.5662E-002  
  624.00  8.5720E-002  
  624.50  8.5867E-002  
  625.00  8.6028E-002  
  625.50  8.6317E-002  
  626.00  8.6390E-002  
  626.50  8.6301E-002  
  627.00  8.6229E-002  
  627.50  8.6248E-002  
  628.00  8.6503E-002  
  628.50  8.6641E-002  
  629.00  8.6775E-002  
  629.50  8.6775E-002  
  630.00  8.6826E-002  
  630.50  8.7060E-002  
  631.00  8.7266E-002  
  631.50  8.7392E-002  
  632.00  8.7398E-002  
  632.50  8.7382E-002  
  633.00  8.7468E-002  
  633.50  8.7514E-002  
  634.00  8.7677E-002  
  634.50  8.7730E-002  
  635.00  8.7823E-002  
  635.50  8.7881E-002  
  636.00  8.7993E-002  
  636.50  8.8116E-002  
  637.00  8.8176E-002  
  637.50  8.8293E-002  
  638.00  8.8343E-002  
  638.50  8.8393E-002  
  639.00  8.8522E-002  
  639.50  8.8554E-002  
  640.00  8.8763E-002  
  640.50  8.8887E-002  
  641.00  8.9033E-002  
  641.50  8.9127E-002  
  642.00  8.9177E-002  
  642.50  8.9182E-002  
  643.00  8.9042E-002  
  643.50  8.9037E-002  
  644.00  8.9200E-002  
  644.50  8.9427E-002  
  645.00  8.9503E-002  
  645.50  8.9480E-002  
  646.00  8.9478E-002  
  646.50  8.9480E-002  
  647.00  8.9646E-002  
  647.50  8.9887E-002  
  648.00  9.0006E-002  
  648.50  8.9976E-002  
  649.00  8.9911E-002  
  649.50  9.0094E-002  
  650.00  9.0254E-002  
  650.50  9.0328E-002  
  651.00  9.0312E-002  
  651.50  9.0237E-002  
  652.00  9.0277E-002  
  652.50  9.0357E-002  
  653.00  9.0405E-002  
  653.50  9.0313E-002  
  654.00  9.0233E-002  
  654.50  9.0207E-002  
  655.00  9.0299E-002  
  655.50  9.0343E-002  
  656.00  9.0603E-002  
  656.50  9.0888E-002  
  657.00  9.1059E-002  
  657.50  9.0965E-002  
  658.00  9.0795E-002  
  658.50  9.0742E-002  
  659.00  9.0977E-002  
  659.50  9.1262E-002  
  660.00  9.1495E-002  
  660.50  9.1456E-002  
  661.00  9.1295E-002  
  661.50  9.1229E-002  
  662.00  9.1273E-002  
  662.50  9.1437E-002  
  663.00  9.1532E-002  
  663.50  9.1591E-002  
  664.00  9.1451E-002  
  664.50  9.1372E-002  
  665.00  9.1412E-002  
  665.50  9.1444E-002  
  666.00  9.1428E-002  
  666.50  9.1477E-002  
  667.00  9.1751E-002  
  667.50  9.1954E-002  
  668.00  9.1845E-002  
  668.50  9.1795E-002  
  669.00  9.1828E-002  
  669.50  9.1886E-002  
  670.00  9.1833E-002  
  670.50  9.1810E-002  
  671.00  9.2037E-002  
  671.50  9.2218E-002  
  672.00  9.2238E-002  
  672.50  9.2080E-002  
  673.00  9.1961E-002  
  673.50  9.1955E-002  
  674.00  9.2082E-002  
  674.50  9.2281E-002  
  675.00  9.2353E-002  
  675.50  9.2358E-002  
  676.00  9.2333E-002  
  676.50  9.2487E-002  
  677.00  9.2518E-002  
  677.50  9.2506E-002  
  678.00  9.2462E-002  
  678.50  9.2475E-002  
  679.00  9.2553E-002  
  679.50  9.2687E-002  
  680.00  9.2679E-002  
