
# From lspdd.org
# 
# Name: INC Globe A19 Domestique
# Indice spectral Valeur 
# MSI 0.29 
# SLI 0.50 
# IPI 0.95 
# Pourcentage de bleu 12.1 
# Caractéristique Valeur 
# CCT calculée (K) 2611 
# CCT du fabricant (K) 2616 
# Tension (V) 120 
# Puissance (W) 60.0 
# Efficacité lumineuse (Lum/W) 9.0 
#
# Image: '/app/system/img_2s/2572/medium_image2.JPG?1413486400'
# Image: '/app/system/img_1s/2572/medium_image1.JPG?1413486401'
# 

  273.00  0.0000E+000  
  273.50  0.0000E+000  
  274.00  0.0000E+000  
  274.50  0.0000E+000  
  275.00  0.0000E+000  
  275.50  0.0000E+000  
  276.00  0.0000E+000  
  276.50  0.0000E+000  
  277.00  0.0000E+000  
  277.50  0.0000E+000  
  278.00  0.0000E+000  
  278.50  0.0000E+000  
  279.00  0.0000E+000  
  279.50  0.0000E+000  
  280.00  0.0000E+000  
  280.50  0.0000E+000  
  281.00  0.0000E+000  
  281.50  0.0000E+000  
  282.00  0.0000E+000  
  282.50  0.0000E+000  
  283.00  0.0000E+000  
  283.50  0.0000E+000  
  284.00  0.0000E+000  
  284.50  0.0000E+000  
  285.00  0.0000E+000  
  285.50  0.0000E+000  
  286.00  0.0000E+000  
  286.50  0.0000E+000  
  287.00  0.0000E+000  
  287.50  0.0000E+000  
  288.00  0.0000E+000  
  288.50  0.0000E+000  
  289.00  0.0000E+000  
  289.50  0.0000E+000  
  290.00  0.0000E+000  
  290.50  0.0000E+000  
  291.00  0.0000E+000  
  291.50  0.0000E+000  
  292.00  0.0000E+000  
  292.50  0.0000E+000  
  293.00  0.0000E+000  
  293.50  0.0000E+000  
  294.00  0.0000E+000  
  294.50  0.0000E+000  
  295.00  0.0000E+000  
  295.50  0.0000E+000  
  296.00  0.0000E+000  
  296.50  0.0000E+000  
  297.00  0.0000E+000  
  297.50  0.0000E+000  
  298.00  0.0000E+000  
  298.50  0.0000E+000  
  299.00  0.0000E+000  
  299.50  0.0000E+000  
  300.00  0.0000E+000  
  300.50  0.0000E+000  
  301.00  0.0000E+000  
  301.50  4.4766E-006  
  302.00  6.9465E-006  
  302.50  0.0000E+000  
  303.00  0.0000E+000  
  303.50  0.0000E+000  
  304.00  0.0000E+000  
  304.50  5.7616E-006  
  305.00  1.2265E-005  
  305.50  2.5540E-005  
  306.00  4.6078E-006  
  306.50  4.4758E-005  
  307.00  8.7942E-005  
  307.50  1.3866E-004  
  308.00  9.4011E-005  
  308.50  9.7659E-005  
  309.00  1.5878E-004  
  309.50  1.7390E-004  
  310.00  1.5796E-004  
  310.50  1.0911E-004  
  311.00  4.7238E-005  
  311.50  4.7321E-005  
  312.00  9.2547E-005  
  312.50  1.1166E-004  
  313.00  1.2754E-004  
  313.50  1.0653E-004  
  314.00  8.9641E-005  
  314.50  5.5320E-005  
  315.00  5.9345E-005  
  315.50  7.2035E-005  
  316.00  7.9445E-005  
  316.50  1.0261E-004  
  317.00  9.9965E-005  
  317.50  1.3611E-004  
  318.00  1.5436E-004  
  318.50  1.4741E-004  
  319.00  1.1904E-004  
  319.50  9.8940E-005  
  320.00  9.1225E-005  
  320.50  1.2868E-004  
  321.00  2.0608E-004  
  321.50  2.3528E-004  
  322.00  2.1652E-004  
  322.50  2.4011E-004  
  323.00  2.5399E-004  
  323.50  2.8950E-004  
  324.00  3.2999E-004  
  324.50  3.3064E-004  
  325.00  3.1182E-004  
  325.50  2.8755E-004  
  326.00  2.6182E-004  
  326.50  2.1253E-004  
  327.00  1.5213E-004  
  327.50  1.2834E-004  
  328.00  1.3614E-004  
  328.50  1.7569E-004  
  329.00  1.8466E-004  
  329.50  1.6996E-004  
  330.00  1.3416E-004  
  330.50  8.9470E-005  
  331.00  6.6679E-005  
  331.50  6.0155E-005  
  332.00  9.1044E-005  
  332.50  1.3682E-004  
  333.00  2.1990E-004  
  333.50  2.7683E-004  
  334.00  2.9741E-004  
  334.50  3.0963E-004  
  335.00  2.8615E-004  
  335.50  2.9910E-004  
  336.00  3.0494E-004  
  336.50  3.0997E-004  
  337.00  3.1046E-004  
  337.50  2.8422E-004  
  338.00  2.9621E-004  
  338.50  2.7175E-004  
  339.00  2.7308E-004  
  339.50  2.4132E-004  
  340.00  2.1475E-004  
  340.50  2.4289E-004  
  341.00  2.8124E-004  
  341.50  3.2985E-004  
  342.00  3.9967E-004  
  342.50  3.9161E-004  
  343.00  3.9042E-004  
  343.50  4.1387E-004  
  344.00  3.9050E-004  
  344.50  3.8855E-004  
  345.00  3.7882E-004  
  345.50  3.3588E-004  
  346.00  3.6658E-004  
  346.50  3.6405E-004  
  347.00  3.9665E-004  
  347.50  4.6835E-004  
  348.00  4.9775E-004  
  348.50  4.8959E-004  
  349.00  4.4498E-004  
  349.50  4.4625E-004  
  350.00  4.7846E-004  
  350.50  5.4412E-004  
  351.00  5.6797E-004  
  351.50  5.4142E-004  
  352.00  5.3046E-004  
  352.50  5.0757E-004  
  353.00  5.5400E-004  
  353.50  5.3863E-004  
  354.00  5.6304E-004  
  354.50  5.7131E-004  
  355.00  5.4025E-004  
  355.50  5.7513E-004  
  356.00  5.4283E-004  
  356.50  5.3397E-004  
  357.00  5.8292E-004  
  357.50  6.1146E-004  
  358.00  6.6308E-004  
  358.50  6.9692E-004  
  359.00  6.8748E-004  
  359.50  6.5321E-004  
  360.00  6.2847E-004  
  360.50  6.2583E-004  
  361.00  6.2059E-004  
  361.50  6.7559E-004  
  362.00  7.1769E-004  
  362.50  7.3878E-004  
  363.00  7.5392E-004  
  363.50  7.5220E-004  
  364.00  7.7629E-004  
  364.50  8.0510E-004  
  365.00  8.3889E-004  
  365.50  8.9858E-004  
  366.00  8.7470E-004  
  366.50  8.5339E-004  
  367.00  8.0797E-004  
  367.50  7.4000E-004  
  368.00  7.6427E-004  
  368.50  7.9870E-004  
  369.00  8.2399E-004  
  369.50  8.9157E-004  
  370.00  9.1906E-004  
  370.50  9.5370E-004  
  371.00  1.0031E-003  
  371.50  9.7242E-004  
  372.00  9.7720E-004  
  372.50  9.8971E-004  
  373.00  9.6903E-004  
  373.50  9.8982E-004  
  374.00  9.6550E-004  
  374.50  1.0052E-003  
  375.00  1.0385E-003  
  375.50  1.0463E-003  
  376.00  1.0722E-003  
  376.50  1.0996E-003  
  377.00  1.1581E-003  
  377.50  1.1885E-003  
  378.00  1.1977E-003  
  378.50  1.1628E-003  
  379.00  1.1159E-003  
  379.50  1.1281E-003  
  380.00  1.1365E-003  
  380.50  1.1649E-003  
  381.00  1.2757E-003  
  381.50  1.3442E-003  
  382.00  1.3832E-003  
  382.50  1.3511E-003  
  383.00  1.2866E-003  
  383.50  1.2910E-003  
  384.00  1.2945E-003  
  384.50  1.3044E-003  
  385.00  1.3450E-003  
  385.50  1.4028E-003  
  386.00  1.4454E-003  
  386.50  1.4551E-003  
  387.00  1.4010E-003  
  387.50  1.3670E-003  
  388.00  1.4243E-003  
  388.50  1.4582E-003  
  389.00  1.5056E-003  
  389.50  1.5549E-003  
  390.00  1.6347E-003  
  390.50  1.7096E-003  
  391.00  1.6800E-003  
  391.50  1.6499E-003  
  392.00  1.6084E-003  
  392.50  1.5988E-003  
  393.00  1.6691E-003  
  393.50  1.7226E-003  
  394.00  1.7394E-003  
  394.50  1.7353E-003  
  395.00  1.6847E-003  
  395.50  1.6850E-003  
  396.00  1.7264E-003  
  396.50  1.8092E-003  
  397.00  1.8522E-003  
  397.50  1.8301E-003  
  398.00  1.8336E-003  
  398.50  1.8087E-003  
  399.00  1.8735E-003  
  399.50  1.9073E-003  
  400.00  1.9133E-003  
  400.50  1.8856E-003  
  401.00  1.8728E-003  
  401.50  1.9218E-003  
  402.00  2.0204E-003  
  402.50  2.1420E-003  
  403.00  2.1836E-003  
  403.50  2.1524E-003  
  404.00  2.1152E-003  
  404.50  2.1665E-003  
  405.00  2.2104E-003  
  405.50  2.2838E-003  
  406.00  2.2953E-003  
  406.50  2.2792E-003  
  407.00  2.3070E-003  
  407.50  2.3009E-003  
  408.00  2.2800E-003  
  408.50  2.2603E-003  
  409.00  2.2945E-003  
  409.50  2.3442E-003  
  410.00  2.3954E-003  
  410.50  2.4236E-003  
  411.00  2.4425E-003  
  411.50  2.4816E-003  
  412.00  2.4800E-003  
  412.50  2.4767E-003  
  413.00  2.4263E-003  
  413.50  2.4292E-003  
  414.00  2.4969E-003  
  414.50  2.5557E-003  
  415.00  2.6668E-003  
  415.50  2.7420E-003  
  416.00  2.7850E-003  
  416.50  2.8097E-003  
  417.00  2.7866E-003  
  417.50  2.7547E-003  
  418.00  2.7379E-003  
  418.50  2.7837E-003  
  419.00  2.8339E-003  
  419.50  2.8789E-003  
  420.00  2.8983E-003  
  420.50  2.9102E-003  
  421.00  2.9190E-003  
  421.50  2.9562E-003  
  422.00  3.0139E-003  
  422.50  3.0841E-003  
  423.00  3.1631E-003  
  423.50  3.2375E-003  
  424.00  3.2452E-003  
  424.50  3.2185E-003  
  425.00  3.2193E-003  
  425.50  3.2579E-003  
  426.00  3.3256E-003  
  426.50  3.3897E-003  
  427.00  3.4131E-003  
  427.50  3.4013E-003  
  428.00  3.4241E-003  
  428.50  3.4378E-003  
  429.00  3.5266E-003  
  429.50  3.5698E-003  
  430.00  3.5550E-003  
  430.50  3.5376E-003  
  431.00  3.5679E-003  
  431.50  3.6336E-003  
  432.00  3.7087E-003  
  432.50  3.7541E-003  
  433.00  3.8123E-003  
  433.50  3.8464E-003  
  434.00  3.9099E-003  
  434.50  3.9236E-003  
  435.00  3.9290E-003  
  435.50  3.9864E-003  
  436.00  3.9762E-003  
  436.50  3.9869E-003  
  437.00  4.0033E-003  
  437.50  4.0537E-003  
  438.00  4.1381E-003  
  438.50  4.2224E-003  
  439.00  4.2731E-003  
  439.50  4.2880E-003  
  440.00  4.3003E-003  
  440.50  4.3212E-003  
  441.00  4.3267E-003  
  441.50  4.3410E-003  
  442.00  4.3186E-003  
  442.50  4.3342E-003  
  443.00  4.3784E-003  
  443.50  4.4422E-003  
  444.00  4.5192E-003  
  444.50  4.5493E-003  
  445.00  4.5942E-003  
  445.50  4.6059E-003  
  446.00  4.6442E-003  
  446.50  4.6907E-003  
  447.00  4.7324E-003  
  447.50  4.8195E-003  
  448.00  4.8717E-003  
  448.50  4.8883E-003  
  449.00  4.8770E-003  
  449.50  4.8988E-003  
  450.00  4.9561E-003  
  450.50  5.0482E-003  
  451.00  5.0683E-003  
  451.50  5.0847E-003  
  452.00  5.1119E-003  
  452.50  5.1935E-003  
  453.00  5.2506E-003  
  453.50  5.2444E-003  
  454.00  5.2215E-003  
  454.50  5.1936E-003  
  455.00  5.2707E-003  
  455.50  5.3315E-003  
  456.00  5.3948E-003  
  456.50  5.4737E-003  
  457.00  5.5736E-003  
  457.50  5.7077E-003  
  458.00  5.7746E-003  
  458.50  5.8144E-003  
  459.00  5.8041E-003  
  459.50  5.8385E-003  
  460.00  5.8969E-003  
  460.50  5.9553E-003  
  461.00  6.0148E-003  
  461.50  6.0121E-003  
  462.00  5.9895E-003  
  462.50  6.0081E-003  
  463.00  6.1011E-003  
  463.50  6.2049E-003  
  464.00  6.3221E-003  
  464.50  6.3245E-003  
  465.00  6.3068E-003  
  465.50  6.3448E-003  
  466.00  6.4005E-003  
  466.50  6.4963E-003  
  467.00  6.5244E-003  
  467.50  6.4849E-003  
  468.00  6.4981E-003  
  468.50  6.5354E-003  
  469.00  6.6315E-003  
  469.50  6.7081E-003  
  470.00  6.7473E-003  
  470.50  6.7710E-003  
  471.00  6.7730E-003  
  471.50  6.8112E-003  
  472.00  6.8881E-003  
  472.50  6.9885E-003  
  473.00  7.0572E-003  
  473.50  7.0762E-003  
  474.00  7.1176E-003  
  474.50  7.1830E-003  
  475.00  7.2760E-003  
  475.50  7.3401E-003  
  476.00  7.3541E-003  
  476.50  7.4081E-003  
  477.00  7.4519E-003  
  477.50  7.4879E-003  
  478.00  7.5048E-003  
  478.50  7.5668E-003  
  479.00  7.6056E-003  
  479.50  7.6709E-003  
  480.00  7.7024E-003  
  480.50  7.7339E-003  
  481.00  7.7894E-003  
  481.50  7.8297E-003  
  482.00  7.8643E-003  
  482.50  7.9169E-003  
  483.00  7.9497E-003  
  483.50  8.0154E-003  
  484.00  8.0725E-003  
  484.50  8.0997E-003  
  485.00  8.1297E-003  
  485.50  8.1735E-003  
  486.00  8.2488E-003  
  486.50  8.3548E-003  
  487.00  8.4273E-003  
  487.50  8.4943E-003  
  488.00  8.5325E-003  
  488.50  8.5946E-003  
  489.00  8.6505E-003  
  489.50  8.6962E-003  
  490.00  8.7528E-003  
  490.50  8.8158E-003  
  491.00  8.8996E-003  
  491.50  8.9866E-003  
  492.00  9.0616E-003  
  492.50  9.1080E-003  
  493.00  9.1512E-003  
  493.50  9.2132E-003  
  494.00  9.2726E-003  
  494.50  9.3509E-003  
  495.00  9.4311E-003  
  495.50  9.4859E-003  
  496.00  9.5502E-003  
  496.50  9.6060E-003  
  497.00  9.6609E-003  
  497.50  9.7432E-003  
  498.00  9.7826E-003  
  498.50  9.8490E-003  
  499.00  9.9199E-003  
  499.50  9.9673E-003  
  500.00  1.0030E-002  
  500.50  1.0108E-002  
  501.00  1.0176E-002  
  501.50  1.0279E-002  
  502.00  1.0364E-002  
  502.50  1.0418E-002  
  503.00  1.0478E-002  
  503.50  1.0543E-002  
  504.00  1.0643E-002  
  504.50  1.0760E-002  
  505.00  1.0866E-002  
  505.50  1.0959E-002  
  506.00  1.1023E-002  
  506.50  1.1084E-002  
  507.00  1.1127E-002  
  507.50  1.1195E-002  
  508.00  1.1298E-002  
  508.50  1.1400E-002  
  509.00  1.1510E-002  
  509.50  1.1593E-002  
  510.00  1.1688E-002  
  510.50  1.1786E-002  
  511.00  1.1872E-002  
  511.50  1.1968E-002  
  512.00  1.2050E-002  
  512.50  1.2107E-002  
  513.00  1.2166E-002  
  513.50  1.2261E-002  
  514.00  1.2335E-002  
  514.50  1.2460E-002  
  515.00  1.2555E-002  
  515.50  1.2687E-002  
  516.00  1.2830E-002  
  516.50  1.2972E-002  
  517.00  1.3081E-002  
  517.50  1.3152E-002  
  518.00  1.3200E-002  
  518.50  1.3310E-002  
  519.00  1.3418E-002  
  519.50  1.3506E-002  
  520.00  1.3602E-002  
  520.50  1.3700E-002  
  521.00  1.3823E-002  
  521.50  1.3911E-002  
  522.00  1.3995E-002  
  522.50  1.4072E-002  
  523.00  1.4197E-002  
  523.50  1.4281E-002  
  524.00  1.4385E-002  
  524.50  1.4446E-002  
  525.00  1.4523E-002  
  525.50  1.4615E-002  
  526.00  1.4718E-002  
  526.50  1.4857E-002  
  527.00  1.4985E-002  
  527.50  1.5102E-002  
  528.00  1.5227E-002  
  528.50  1.5341E-002  
  529.00  1.5466E-002  
  529.50  1.5542E-002  
  530.00  1.5591E-002  
  530.50  1.5626E-002  
  531.00  1.5682E-002  
  531.50  1.5813E-002  
  532.00  1.5968E-002  
  532.50  1.6112E-002  
  533.00  1.6214E-002  
  533.50  1.6290E-002  
  534.00  1.6373E-002  
  534.50  1.6529E-002  
  535.00  1.6642E-002  
  535.50  1.6773E-002  
  536.00  1.6873E-002  
  536.50  1.6946E-002  
  537.00  1.7084E-002  
  537.50  1.7198E-002  
  538.00  1.7338E-002  
  538.50  1.7440E-002  
  539.00  1.7511E-002  
  539.50  1.7606E-002  
  540.00  1.7711E-002  
  540.50  1.7802E-002  
  541.00  1.7897E-002  
  541.50  1.7969E-002  
  542.00  1.8090E-002  
  542.50  1.8197E-002  
  543.00  1.8323E-002  
  543.50  1.8434E-002  
  544.00  1.8574E-002  
  544.50  1.8693E-002  
  545.00  1.8794E-002  
  545.50  1.8893E-002  
  546.00  1.8991E-002  
  546.50  1.9108E-002  
  547.00  1.9247E-002  
  547.50  1.9376E-002  
  548.00  1.9495E-002  
  548.50  1.9606E-002  
  549.00  1.9725E-002  
  549.50  1.9850E-002  
  550.00  1.9884E-002  
  550.50  1.9934E-002  
  551.00  1.9979E-002  
  551.50  2.0102E-002  
  552.00  2.0245E-002  
  552.50  2.0388E-002  
  553.00  2.0538E-002  
  553.50  2.0741E-002  
  554.00  2.0901E-002  
  554.50  2.1010E-002  
  555.00  2.1015E-002  
  555.50  2.1077E-002  
  556.00  2.1246E-002  
  556.50  2.1480E-002  
  557.00  2.1634E-002  
  557.50  2.1723E-002  
  558.00  2.1779E-002  
  558.50  2.1853E-002  
  559.00  2.1924E-002  
  559.50  2.2013E-002  
  560.00  2.2112E-002  
  560.50  2.2211E-002  
  561.00  2.2334E-002  
  561.50  2.2470E-002  
  562.00  2.2591E-002  
  562.50  2.2670E-002  
  563.00  2.2697E-002  
  563.50  2.2723E-002  
  564.00  2.2829E-002  
  564.50  2.2924E-002  
  565.00  2.3078E-002  
  565.50  2.3254E-002  
  566.00  2.3408E-002  
  566.50  2.3555E-002  
  567.00  2.3598E-002  
  567.50  2.3622E-002  
  568.00  2.3649E-002  
  568.50  2.3722E-002  
  569.00  2.3789E-002  
  569.50  2.3906E-002  
  570.00  2.4002E-002  
  570.50  2.4095E-002  
  571.00  2.4154E-002  
  571.50  2.4263E-002  
  572.00  2.4412E-002  
  572.50  2.4554E-002  
  573.00  2.4622E-002  
  573.50  2.4650E-002  
  574.00  2.4716E-002  
  574.50  2.4831E-002  
  575.00  2.4956E-002  
  575.50  2.5144E-002  
  576.00  2.5241E-002  
  576.50  2.5368E-002  
  577.00  2.5479E-002  
  577.50  2.5600E-002  
  578.00  2.5713E-002  
  578.50  2.5851E-002  
  579.00  2.5953E-002  
  579.50  2.6071E-002  
  580.00  2.6068E-002  
  580.50  2.6103E-002  
  581.00  2.6117E-002  
  581.50  2.6168E-002  
  582.00  2.6211E-002  
  582.50  2.6330E-002  
  583.00  2.6493E-002  
  583.50  2.6673E-002  
  584.00  2.6770E-002  
  584.50  2.6831E-002  
  585.00  2.6859E-002  
  585.50  2.6924E-002  
  586.00  2.7065E-002  
  586.50  2.7154E-002  
  587.00  2.7256E-002  
  587.50  2.7344E-002  
  588.00  2.7439E-002  
  588.50  2.7528E-002  
  589.00  2.7591E-002  
  589.50  2.7739E-002  
  590.00  2.7929E-002  
  590.50  2.8098E-002  
  591.00  2.8133E-002  
  591.50  2.8174E-002  
  592.00  2.8187E-002  
  592.50  2.8311E-002  
  593.00  2.8379E-002  
  593.50  2.8453E-002  
  594.00  2.8544E-002  
  594.50  2.8627E-002  
  595.00  2.8737E-002  
  595.50  2.8735E-002  
  596.00  2.8785E-002  
  596.50  2.8818E-002  
  597.00  2.8926E-002  
  597.50  2.8984E-002  
  598.00  2.9054E-002  
  598.50  2.9066E-002  
  599.00  2.9157E-002  
  599.50  2.9228E-002  
  600.00  2.9367E-002  
  600.50  2.9433E-002  
  601.00  2.9463E-002  
  601.50  2.9473E-002  
  602.00  2.9628E-002  
  602.50  2.9831E-002  
  603.00  2.9978E-002  
  603.50  3.0039E-002  
  604.00  3.0095E-002  
  604.50  3.0168E-002  
  605.00  3.0197E-002  
  605.50  3.0212E-002  
  606.00  3.0185E-002  
  606.50  3.0286E-002  
  607.00  3.0369E-002  
  607.50  3.0529E-002  
  608.00  3.0629E-002  
  608.50  3.0729E-002  
  609.00  3.0821E-002  
  609.50  3.0921E-002  
  610.00  3.1031E-002  
  610.50  3.1022E-002  
  611.00  3.0997E-002  
  611.50  3.0906E-002  
  612.00  3.0971E-002  
  612.50  3.1082E-002  
  613.00  3.1262E-002  
  613.50  3.1417E-002  
  614.00  3.1548E-002  
  614.50  3.1632E-002  
  615.00  3.1664E-002  
  615.50  3.1683E-002  
  616.00  3.1677E-002  
  616.50  3.1771E-002  
  617.00  3.1914E-002  
  617.50  3.2084E-002  
  618.00  3.2110E-002  
  618.50  3.2098E-002  
  619.00  3.2122E-002  
  619.50  3.2245E-002  
  620.00  3.2338E-002  
  620.50  3.2387E-002  
  621.00  3.2486E-002  
  621.50  3.2578E-002  
  622.00  3.2656E-002  
  622.50  3.2691E-002  
  623.00  3.2783E-002  
  623.50  3.2778E-002  
  624.00  3.2791E-002  
  624.50  3.2739E-002  
  625.00  3.2848E-002  
  625.50  3.2945E-002  
  626.00  3.3061E-002  
  626.50  3.3054E-002  
  627.00  3.3019E-002  
  627.50  3.3094E-002  
  628.00  3.3211E-002  
  628.50  3.3355E-002  
  629.00  3.3432E-002  
  629.50  3.3492E-002  
  630.00  3.3604E-002  
  630.50  3.3633E-002  
  631.00  3.3673E-002  
  631.50  3.3734E-002  
  632.00  3.3787E-002  
  632.50  3.3816E-002  
  633.00  3.3777E-002  
  633.50  3.3828E-002  
  634.00  3.3903E-002  
  634.50  3.4071E-002  
  635.00  3.4261E-002  
  635.50  3.4378E-002  
  636.00  3.4424E-002  
  636.50  3.4429E-002  
  637.00  3.4557E-002  
  637.50  3.4694E-002  
  638.00  3.4704E-002  
  638.50  3.4674E-002  
  639.00  3.4697E-002  
  639.50  3.4779E-002  
  640.00  3.4889E-002  
  640.50  3.4874E-002  
  641.00  3.4896E-002  
  641.50  3.5006E-002  
  642.00  3.5174E-002  
  642.50  3.5296E-002  
  643.00  3.5303E-002  
  643.50  3.5325E-002  
  644.00  3.5426E-002  
  644.50  3.5509E-002  
  645.00  3.5549E-002  
  645.50  3.5605E-002  
  646.00  3.5635E-002  
  646.50  3.5643E-002  
  647.00  3.5719E-002  
  647.50  3.5803E-002  
  648.00  3.5931E-002  
  648.50  3.5930E-002  
  649.00  3.5985E-002  
  649.50  3.6066E-002  
  650.00  3.6186E-002  
  650.50  3.6263E-002  
  651.00  3.6319E-002  
  651.50  3.6323E-002  
  652.00  3.6290E-002  
  652.50  3.6329E-002  
  653.00  3.6357E-002  
  653.50  3.6488E-002  
  654.00  3.6567E-002  
  654.50  3.6583E-002  
  655.00  3.6556E-002  
  655.50  3.6550E-002  
  656.00  3.6632E-002  
  656.50  3.6709E-002  
  657.00  3.6725E-002  
  657.50  3.6717E-002  
  658.00  3.6788E-002  
  658.50  3.6991E-002  
  659.00  3.7158E-002  
  659.50  3.7259E-002  
  660.00  3.7225E-002  
  660.50  3.7241E-002  
  661.00  3.7248E-002  
  661.50  3.7313E-002  
  662.00  3.7342E-002  
  662.50  3.7338E-002  
  663.00  3.7434E-002  
  663.50  3.7616E-002  
  664.00  3.7769E-002  
  664.50  3.7707E-002  
  665.00  3.7560E-002  
  665.50  3.7446E-002  
  666.00  3.7525E-002  
  666.50  3.7637E-002  
  667.00  3.7781E-002  
  667.50  3.7786E-002  
  668.00  3.7837E-002  
  668.50  3.7909E-002  
  669.00  3.7995E-002  
  669.50  3.7986E-002  
  670.00  3.7954E-002  
  670.50  3.8035E-002  
  671.00  3.8131E-002  
  671.50  3.8209E-002  
  672.00  3.8157E-002  
  672.50  3.8108E-002  
  673.00  3.8185E-002  
  673.50  3.8307E-002  
  674.00  3.8388E-002  
  674.50  3.8394E-002  
  675.00  3.8345E-002  
  675.50  3.8403E-002  
  676.00  3.8366E-002  
  676.50  3.8415E-002  
  677.00  3.8518E-002  
  677.50  3.8667E-002  
  678.00  3.8801E-002  
  678.50  3.8851E-002  
  679.00  3.8941E-002  
  679.50  3.8989E-002  
  680.00  3.9023E-002  
