
# From lspdd.org
# 
# Name: DEL EnergySmart PAR20 Domestique
# Indice spectral Valeur 
# MSI 0.21 
# SLI 0.42 
# IPI 0.65 
# Pourcentage de bleu 13.6 
# Caractéristique Valeur 
# CCT calculée (K) 2524 
# CCT du fabricant (K) 2700 
# Tension (V) ND 
# Puissance (W) 7.0 
# Efficacité lumineuse (Lum/W) 47.1 
#
# Image: '/app/system/img_2s/2575/medium_image2.JPG?1413486419'
# Image: '/app/system/img_1s/2575/medium_image1.JPG?1413486423'
# 

  273.00  0.0000E+000  
  273.50  0.0000E+000  
  274.00  0.0000E+000  
  274.50  0.0000E+000  
  275.00  0.0000E+000  
  275.50  0.0000E+000  
  276.00  0.0000E+000  
  276.50  0.0000E+000  
  277.00  0.0000E+000  
  277.50  0.0000E+000  
  278.00  0.0000E+000  
  278.50  0.0000E+000  
  279.00  0.0000E+000  
  279.50  0.0000E+000  
  280.00  0.0000E+000  
  280.50  0.0000E+000  
  281.00  0.0000E+000  
  281.50  0.0000E+000  
  282.00  0.0000E+000  
  282.50  0.0000E+000  
  283.00  0.0000E+000  
  283.50  0.0000E+000  
  284.00  0.0000E+000  
  284.50  0.0000E+000  
  285.00  0.0000E+000  
  285.50  0.0000E+000  
  286.00  0.0000E+000  
  286.50  0.0000E+000  
  287.00  0.0000E+000  
  287.50  0.0000E+000  
  288.00  0.0000E+000  
  288.50  0.0000E+000  
  289.00  0.0000E+000  
  289.50  0.0000E+000  
  290.00  0.0000E+000  
  290.50  0.0000E+000  
  291.00  0.0000E+000  
  291.50  0.0000E+000  
  292.00  0.0000E+000  
  292.50  0.0000E+000  
  293.00  0.0000E+000  
  293.50  0.0000E+000  
  294.00  0.0000E+000  
  294.50  0.0000E+000  
  295.00  0.0000E+000  
  295.50  0.0000E+000  
  296.00  0.0000E+000  
  296.50  0.0000E+000  
  297.00  0.0000E+000  
  297.50  0.0000E+000  
  298.00  0.0000E+000  
  298.50  0.0000E+000  
  299.00  0.0000E+000  
  299.50  0.0000E+000  
  300.00  0.0000E+000  
  300.50  0.0000E+000  
  301.00  0.0000E+000  
  301.50  0.0000E+000  
  302.00  0.0000E+000  
  302.50  0.0000E+000  
  303.00  0.0000E+000  
  303.50  0.0000E+000  
  304.00  0.0000E+000  
  304.50  0.0000E+000  
  305.00  0.0000E+000  
  305.50  0.0000E+000  
  306.00  0.0000E+000  
  306.50  0.0000E+000  
  307.00  0.0000E+000  
  307.50  0.0000E+000  
  308.00  0.0000E+000  
  308.50  0.0000E+000  
  309.00  0.0000E+000  
  309.50  0.0000E+000  
  310.00  0.0000E+000  
  310.50  0.0000E+000  
  311.00  0.0000E+000  
  311.50  0.0000E+000  
  312.00  0.0000E+000  
  312.50  0.0000E+000  
  313.00  0.0000E+000  
  313.50  0.0000E+000  
  314.00  0.0000E+000  
  314.50  0.0000E+000  
  315.00  1.5221E-005  
  315.50  3.1963E-006  
  316.00  0.0000E+000  
  316.50  0.0000E+000  
  317.00  0.0000E+000  
  317.50  0.0000E+000  
  318.00  0.0000E+000  
  318.50  0.0000E+000  
  319.00  0.0000E+000  
  319.50  0.0000E+000  
  320.00  0.0000E+000  
  320.50  0.0000E+000  
  321.00  0.0000E+000  
  321.50  1.0622E-005  
  322.00  2.6359E-005  
  322.50  0.0000E+000  
  323.00  0.0000E+000  
  323.50  0.0000E+000  
  324.00  0.0000E+000  
  324.50  0.0000E+000  
  325.00  0.0000E+000  
  325.50  0.0000E+000  
  326.00  0.0000E+000  
  326.50  0.0000E+000  
  327.00  2.4230E-006  
  327.50  2.3794E-005  
  328.00  2.4004E-005  
  328.50  0.0000E+000  
  329.00  0.0000E+000  
  329.50  0.0000E+000  
  330.00  0.0000E+000  
  330.50  0.0000E+000  
  331.00  0.0000E+000  
  331.50  3.1432E-005  
  332.00  8.4017E-005  
  332.50  9.4611E-005  
  333.00  3.2481E-005  
  333.50  0.0000E+000  
  334.00  0.0000E+000  
  334.50  0.0000E+000  
  335.00  0.0000E+000  
  335.50  0.0000E+000  
  336.00  0.0000E+000  
  336.50  5.2399E-006  
  337.00  2.7449E-005  
  337.50  3.8232E-005  
  338.00  1.7131E-005  
  338.50  2.1502E-006  
  339.00  0.0000E+000  
  339.50  0.0000E+000  
  340.00  0.0000E+000  
  340.50  0.0000E+000  
  341.00  0.0000E+000  
  341.50  0.0000E+000  
  342.00  1.7108E-005  
  342.50  3.3245E-006  
  343.00  0.0000E+000  
  343.50  0.0000E+000  
  344.00  0.0000E+000  
  344.50  0.0000E+000  
  345.00  0.0000E+000  
  345.50  0.0000E+000  
  346.00  0.0000E+000  
  346.50  1.5497E-005  
  347.00  2.1473E-005  
  347.50  1.2777E-005  
  348.00  9.3338E-006  
  348.50  2.4805E-005  
  349.00  1.9001E-005  
  349.50  2.7953E-005  
  350.00  3.7445E-005  
  350.50  2.4247E-005  
  351.00  3.1703E-005  
  351.50  0.0000E+000  
  352.00  0.0000E+000  
  352.50  0.0000E+000  
  353.00  0.0000E+000  
  353.50  0.0000E+000  
  354.00  8.6361E-006  
  354.50  1.2681E-006  
  355.00  0.0000E+000  
  355.50  0.0000E+000  
  356.00  0.0000E+000  
  356.50  0.0000E+000  
  357.00  0.0000E+000  
  357.50  0.0000E+000  
  358.00  0.0000E+000  
  358.50  1.8755E-006  
  359.00  2.4747E-005  
  359.50  8.5358E-005  
  360.00  1.1257E-004  
  360.50  1.1930E-004  
  361.00  1.2446E-004  
  361.50  1.0914E-004  
  362.00  1.1399E-004  
  362.50  1.1838E-004  
  363.00  8.8564E-005  
  363.50  6.3128E-005  
  364.00  4.3834E-005  
  364.50  2.7275E-005  
  365.00  1.2800E-005  
  365.50  8.5094E-009  
  366.00  0.0000E+000  
  366.50  0.0000E+000  
  367.00  4.1855E-007  
  367.50  2.0623E-005  
  368.00  5.3243E-005  
  368.50  9.1228E-005  
  369.00  1.2081E-004  
  369.50  1.2915E-004  
  370.00  8.1103E-005  
  370.50  4.1282E-005  
  371.00  2.8008E-006  
  371.50  0.0000E+000  
  372.00  0.0000E+000  
  372.50  6.8810E-006  
  373.00  5.5230E-005  
  373.50  6.8342E-005  
  374.00  5.7835E-005  
  374.50  4.9513E-005  
  375.00  6.2987E-005  
  375.50  1.1669E-004  
  376.00  1.6273E-004  
  376.50  1.7627E-004  
  377.00  1.4835E-004  
  377.50  6.7890E-005  
  378.00  2.1529E-005  
  378.50  2.5328E-005  
  379.00  8.2396E-006  
  379.50  6.1509E-005  
  380.00  1.0537E-004  
  380.50  1.6569E-004  
  381.00  1.9819E-004  
  381.50  1.5324E-004  
  382.00  7.7455E-005  
  382.50  5.2258E-005  
  383.00  2.4562E-005  
  383.50  3.5647E-005  
  384.00  4.3072E-005  
  384.50  4.4149E-005  
  385.00  9.6425E-005  
  385.50  1.1971E-004  
  386.00  1.4725E-004  
  386.50  1.7752E-004  
  387.00  1.9916E-004  
  387.50  2.2121E-004  
  388.00  1.8412E-004  
  388.50  1.4538E-004  
  389.00  1.0364E-004  
  389.50  5.8076E-005  
  390.00  4.0451E-005  
  390.50  4.2743E-005  
  391.00  6.5488E-005  
  391.50  1.1676E-004  
  392.00  1.4636E-004  
  392.50  1.3904E-004  
  393.00  1.4436E-004  
  393.50  1.5717E-004  
  394.00  1.7522E-004  
  394.50  1.8777E-004  
  395.00  1.6016E-004  
  395.50  1.5799E-004  
  396.00  1.6760E-004  
  396.50  2.0451E-004  
  397.00  2.3580E-004  
  397.50  1.5402E-004  
  398.00  9.9710E-005  
  398.50  8.7374E-005  
  399.00  9.5289E-005  
  399.50  1.7563E-004  
  400.00  2.0007E-004  
  400.50  2.0458E-004  
  401.00  2.1299E-004  
  401.50  2.4007E-004  
  402.00  2.6435E-004  
  402.50  2.6298E-004  
  403.00  2.3329E-004  
  403.50  1.7418E-004  
  404.00  1.8194E-004  
  404.50  2.1449E-004  
  405.00  2.8605E-004  
  405.50  2.9110E-004  
  406.00  2.7359E-004  
  406.50  2.8272E-004  
  407.00  2.9573E-004  
  407.50  3.5520E-004  
  408.00  4.0457E-004  
  408.50  3.7351E-004  
  409.00  3.4660E-004  
  409.50  3.2937E-004  
  410.00  3.3442E-004  
  410.50  4.1512E-004  
  411.00  4.3605E-004  
  411.50  4.2288E-004  
  412.00  4.3091E-004  
  412.50  4.1444E-004  
  413.00  4.2710E-004  
  413.50  5.0001E-004  
  414.00  5.3265E-004  
  414.50  5.5536E-004  
  415.00  5.8764E-004  
  415.50  6.1806E-004  
  416.00  7.0945E-004  
  416.50  7.7545E-004  
  417.00  7.9011E-004  
  417.50  7.9398E-004  
  418.00  8.2486E-004  
  418.50  8.5184E-004  
  419.00  9.1576E-004  
  419.50  1.0273E-003  
  420.00  1.1671E-003  
  420.50  1.3437E-003  
  421.00  1.5124E-003  
  421.50  1.6131E-003  
  422.00  1.7134E-003  
  422.50  1.7818E-003  
  423.00  1.8520E-003  
  423.50  1.9730E-003  
  424.00  2.0571E-003  
  424.50  2.1353E-003  
  425.00  2.2446E-003  
  425.50  2.3621E-003  
  426.00  2.5561E-003  
  426.50  2.7374E-003  
  427.00  2.9454E-003  
  427.50  3.1639E-003  
  428.00  3.3960E-003  
  428.50  3.5695E-003  
  429.00  3.7791E-003  
  429.50  3.9868E-003  
  430.00  4.1871E-003  
  430.50  4.4346E-003  
  431.00  4.6628E-003  
  431.50  4.9591E-003  
  432.00  5.3089E-003  
  432.50  5.6338E-003  
  433.00  5.9707E-003  
  433.50  6.2645E-003  
  434.00  6.5992E-003  
  434.50  6.9885E-003  
  435.00  7.3766E-003  
  435.50  7.8121E-003  
  436.00  8.2268E-003  
  436.50  8.6923E-003  
  437.00  9.1356E-003  
  437.50  9.5329E-003  
  438.00  9.9389E-003  
  438.50  1.0321E-002  
  439.00  1.0736E-002  
  439.50  1.1272E-002  
  440.00  1.1809E-002  
  440.50  1.2456E-002  
  441.00  1.3105E-002  
  441.50  1.3693E-002  
  442.00  1.4384E-002  
  442.50  1.5021E-002  
  443.00  1.5757E-002  
  443.50  1.6515E-002  
  444.00  1.7337E-002  
  444.50  1.8237E-002  
  445.00  1.9163E-002  
  445.50  2.0141E-002  
  446.00  2.1089E-002  
  446.50  2.1996E-002  
  447.00  2.2850E-002  
  447.50  2.3804E-002  
  448.00  2.4877E-002  
  448.50  2.5996E-002  
  449.00  2.7159E-002  
  449.50  2.8288E-002  
  450.00  2.9350E-002  
  450.50  3.0390E-002  
  451.00  3.1394E-002  
  451.50  3.2406E-002  
  452.00  3.3477E-002  
  452.50  3.4402E-002  
  453.00  3.5143E-002  
  453.50  3.5752E-002  
  454.00  3.6393E-002  
  454.50  3.6939E-002  
  455.00  3.7448E-002  
  455.50  3.7811E-002  
  456.00  3.8038E-002  
  456.50  3.8334E-002  
  457.00  3.8493E-002  
  457.50  3.8508E-002  
  458.00  3.8299E-002  
  458.50  3.7848E-002  
  459.00  3.7330E-002  
  459.50  3.6862E-002  
  460.00  3.6437E-002  
  460.50  3.6080E-002  
  461.00  3.5649E-002  
  461.50  3.5009E-002  
  462.00  3.4338E-002  
  462.50  3.3517E-002  
  463.00  3.2722E-002  
  463.50  3.1947E-002  
  464.00  3.1272E-002  
  464.50  3.0677E-002  
  465.00  3.0139E-002  
  465.50  2.9448E-002  
  466.00  2.8687E-002  
  466.50  2.7960E-002  
  467.00  2.7393E-002  
  467.50  2.7023E-002  
  468.00  2.6601E-002  
  468.50  2.6173E-002  
  469.00  2.5707E-002  
  469.50  2.5268E-002  
  470.00  2.4946E-002  
  470.50  2.4666E-002  
  471.00  2.4331E-002  
  471.50  2.3969E-002  
  472.00  2.3561E-002  
  472.50  2.3269E-002  
  473.00  2.3105E-002  
  473.50  2.3000E-002  
  474.00  2.2820E-002  
  474.50  2.2535E-002  
  475.00  2.2164E-002  
  475.50  2.1802E-002  
  476.00  2.1450E-002  
  476.50  2.1205E-002  
  477.00  2.0923E-002  
  477.50  2.0609E-002  
  478.00  2.0252E-002  
  478.50  1.9947E-002  
  479.00  1.9766E-002  
  479.50  1.9655E-002  
  480.00  1.9536E-002  
  480.50  1.9331E-002  
  481.00  1.9028E-002  
  481.50  1.8669E-002  
  482.00  1.8411E-002  
  482.50  1.8225E-002  
  483.00  1.8046E-002  
  483.50  1.7897E-002  
  484.00  1.7710E-002  
  484.50  1.7580E-002  
  485.00  1.7481E-002  
  485.50  1.7391E-002  
  486.00  1.7297E-002  
  486.50  1.7266E-002  
  487.00  1.7204E-002  
  487.50  1.7146E-002  
  488.00  1.7107E-002  
  488.50  1.7066E-002  
  489.00  1.7097E-002  
  489.50  1.7096E-002  
  490.00  1.7141E-002  
  490.50  1.7220E-002  
  491.00  1.7350E-002  
  491.50  1.7451E-002  
  492.00  1.7564E-002  
  492.50  1.7654E-002  
  493.00  1.7796E-002  
  493.50  1.7976E-002  
  494.00  1.8140E-002  
  494.50  1.8294E-002  
  495.00  1.8411E-002  
  495.50  1.8547E-002  
  496.00  1.8723E-002  
  496.50  1.8978E-002  
  497.00  1.9279E-002  
  497.50  1.9613E-002  
  498.00  1.9937E-002  
  498.50  2.0210E-002  
  499.00  2.0507E-002  
  499.50  2.0825E-002  
  500.00  2.1190E-002  
  500.50  2.1531E-002  
  501.00  2.1933E-002  
  501.50  2.2365E-002  
  502.00  2.2826E-002  
  502.50  2.3252E-002  
  503.00  2.3653E-002  
  503.50  2.4131E-002  
  504.00  2.4702E-002  
  504.50  2.5276E-002  
  505.00  2.5798E-002  
  505.50  2.6277E-002  
  506.00  2.6766E-002  
  506.50  2.7294E-002  
  507.00  2.7798E-002  
  507.50  2.8364E-002  
  508.00  2.8891E-002  
  508.50  2.9443E-002  
  509.00  3.0022E-002  
  509.50  3.0675E-002  
  510.00  3.1408E-002  
  510.50  3.2093E-002  
  511.00  3.2722E-002  
  511.50  3.3325E-002  
  512.00  3.3987E-002  
  512.50  3.4686E-002  
  513.00  3.5395E-002  
  513.50  3.6033E-002  
  514.00  3.6675E-002  
  514.50  3.7342E-002  
  515.00  3.7999E-002  
  515.50  3.8673E-002  
  516.00  3.9259E-002  
  516.50  3.9866E-002  
  517.00  4.0524E-002  
  517.50  4.1283E-002  
  518.00  4.2069E-002  
  518.50  4.2770E-002  
  519.00  4.3455E-002  
  519.50  4.4047E-002  
  520.00  4.4704E-002  
  520.50  4.5374E-002  
  521.00  4.6103E-002  
  521.50  4.6860E-002  
  522.00  4.7532E-002  
  522.50  4.8187E-002  
  523.00  4.8803E-002  
  523.50  4.9507E-002  
  524.00  5.0213E-002  
  524.50  5.0865E-002  
  525.00  5.1472E-002  
  525.50  5.2087E-002  
  526.00  5.2775E-002  
  526.50  5.3512E-002  
  527.00  5.4185E-002  
  527.50  5.4802E-002  
  528.00  5.5394E-002  
  528.50  5.6032E-002  
  529.00  5.6725E-002  
  529.50  5.7367E-002  
  530.00  5.7994E-002  
  530.50  5.8587E-002  
  531.00  5.9197E-002  
  531.50  5.9788E-002  
  532.00  6.0414E-002  
  532.50  6.1000E-002  
  533.00  6.1621E-002  
  533.50  6.2278E-002  
  534.00  6.2916E-002  
  534.50  6.3647E-002  
  535.00  6.4299E-002  
  535.50  6.4786E-002  
  536.00  6.5278E-002  
  536.50  6.5714E-002  
  537.00  6.6394E-002  
  537.50  6.7043E-002  
  538.00  6.7744E-002  
  538.50  6.8382E-002  
  539.00  6.9002E-002  
  539.50  6.9657E-002  
  540.00  7.0314E-002  
  540.50  7.0969E-002  
  541.00  7.1553E-002  
  541.50  7.2122E-002  
  542.00  7.2656E-002  
  542.50  7.3214E-002  
  543.00  7.3799E-002  
  543.50  7.4313E-002  
  544.00  7.4995E-002  
  544.50  7.5673E-002  
  545.00  7.6355E-002  
  545.50  7.7003E-002  
  546.00  7.7532E-002  
  546.50  7.8097E-002  
  547.00  7.8724E-002  
  547.50  7.9304E-002  
  548.00  7.9925E-002  
  548.50  8.0529E-002  
  549.00  8.1158E-002  
  549.50  8.1739E-002  
  550.00  8.2250E-002  
  550.50  8.2921E-002  
  551.00  8.3621E-002  
  551.50  8.4417E-002  
  552.00  8.5172E-002  
  552.50  8.5866E-002  
  553.00  8.6641E-002  
  553.50  8.7408E-002  
  554.00  8.8176E-002  
  554.50  8.8844E-002  
  555.00  8.9333E-002  
  555.50  8.9880E-002  
  556.00  9.0539E-002  
  556.50  9.1269E-002  
  557.00  9.1971E-002  
  557.50  9.2757E-002  
  558.00  9.3486E-002  
  558.50  9.4406E-002  
  559.00  9.5142E-002  
  559.50  9.5859E-002  
  560.00  9.6489E-002  
  560.50  9.7134E-002  
  561.00  9.7892E-002  
  561.50  9.8695E-002  
  562.00  9.9576E-002  
  562.50  1.0037E-001  
  563.00  1.0103E-001  
  563.50  1.0161E-001  
  564.00  1.0218E-001  
  564.50  1.0283E-001  
  565.00  1.0351E-001  
  565.50  1.0426E-001  
  566.00  1.0506E-001  
  566.50  1.0583E-001  
  567.00  1.0648E-001  
  567.50  1.0720E-001  
  568.00  1.0800E-001  
  568.50  1.0888E-001  
  569.00  1.0964E-001  
  569.50  1.1028E-001  
  570.00  1.1085E-001  
  570.50  1.1159E-001  
  571.00  1.1237E-001  
  571.50  1.1314E-001  
  572.00  1.1389E-001  
  572.50  1.1456E-001  
  573.00  1.1530E-001  
  573.50  1.1604E-001  
  574.00  1.1681E-001  
  574.50  1.1755E-001  
  575.00  1.1832E-001  
  575.50  1.1898E-001  
  576.00  1.1966E-001  
  576.50  1.2034E-001  
  577.00  1.2109E-001  
  577.50  1.2192E-001  
  578.00  1.2264E-001  
  578.50  1.2342E-001  
  579.00  1.2413E-001  
  579.50  1.2486E-001  
  580.00  1.2547E-001  
  580.50  1.2608E-001  
  581.00  1.2673E-001  
  581.50  1.2739E-001  
  582.00  1.2794E-001  
  582.50  1.2859E-001  
  583.00  1.2921E-001  
  583.50  1.2998E-001  
  584.00  1.3060E-001  
  584.50  1.3109E-001  
  585.00  1.3151E-001  
  585.50  1.3203E-001  
  586.00  1.3272E-001  
  586.50  1.3344E-001  
  587.00  1.3408E-001  
  587.50  1.3458E-001  
  588.00  1.3509E-001  
  588.50  1.3553E-001  
  589.00  1.3612E-001  
  589.50  1.3663E-001  
  590.00  1.3714E-001  
  590.50  1.3762E-001  
  591.00  1.3815E-001  
  591.50  1.3865E-001  
  592.00  1.3901E-001  
  592.50  1.3921E-001  
  593.00  1.3953E-001  
  593.50  1.3978E-001  
  594.00  1.4028E-001  
  594.50  1.4077E-001  
  595.00  1.4128E-001  
  595.50  1.4143E-001  
  596.00  1.4150E-001  
  596.50  1.4172E-001  
  597.00  1.4219E-001  
  597.50  1.4260E-001  
  598.00  1.4281E-001  
  598.50  1.4303E-001  
  599.00  1.4330E-001  
  599.50  1.4354E-001  
  600.00  1.4373E-001  
  600.50  1.4392E-001  
  601.00  1.4415E-001  
  601.50  1.4426E-001  
  602.00  1.4430E-001  
  602.50  1.4438E-001  
  603.00  1.4449E-001  
  603.50  1.4455E-001  
  604.00  1.4464E-001  
  604.50  1.4485E-001  
  605.00  1.4502E-001  
  605.50  1.4507E-001  
  606.00  1.4499E-001  
  606.50  1.4515E-001  
  607.00  1.4523E-001  
  607.50  1.4525E-001  
  608.00  1.4507E-001  
  608.50  1.4510E-001  
  609.00  1.4514E-001  
  609.50  1.4532E-001  
  610.00  1.4536E-001  
  610.50  1.4517E-001  
  611.00  1.4483E-001  
  611.50  1.4445E-001  
  612.00  1.4426E-001  
  612.50  1.4429E-001  
  613.00  1.4417E-001  
  613.50  1.4409E-001  
  614.00  1.4391E-001  
  614.50  1.4374E-001  
  615.00  1.4347E-001  
  615.50  1.4306E-001  
  616.00  1.4283E-001  
  616.50  1.4259E-001  
  617.00  1.4229E-001  
  617.50  1.4179E-001  
  618.00  1.4132E-001  
  618.50  1.4084E-001  
  619.00  1.4035E-001  
  619.50  1.3992E-001  
  620.00  1.3967E-001  
  620.50  1.3944E-001  
  621.00  1.3921E-001  
  621.50  1.3871E-001  
  622.00  1.3829E-001  
  622.50  1.3765E-001  
  623.00  1.3707E-001  
  623.50  1.3643E-001  
  624.00  1.3568E-001  
  624.50  1.3498E-001  
  625.00  1.3444E-001  
  625.50  1.3412E-001  
  626.00  1.3367E-001  
  626.50  1.3309E-001  
  627.00  1.3246E-001  
  627.50  1.3198E-001  
  628.00  1.3144E-001  
  628.50  1.3084E-001  
  629.00  1.3019E-001  
  629.50  1.2936E-001  
  630.00  1.2861E-001  
  630.50  1.2794E-001  
  631.00  1.2729E-001  
  631.50  1.2655E-001  
  632.00  1.2563E-001  
  632.50  1.2491E-001  
  633.00  1.2423E-001  
  633.50  1.2365E-001  
  634.00  1.2299E-001  
  634.50  1.2238E-001  
  635.00  1.2166E-001  
  635.50  1.2071E-001  
  636.00  1.1974E-001  
  636.50  1.1895E-001  
  637.00  1.1827E-001  
  637.50  1.1757E-001  
  638.00  1.1669E-001  
  638.50  1.1601E-001  
  639.00  1.1533E-001  
  639.50  1.1468E-001  
  640.00  1.1385E-001  
  640.50  1.1279E-001  
  641.00  1.1174E-001  
  641.50  1.1073E-001  
  642.00  1.0990E-001  
  642.50  1.0909E-001  
  643.00  1.0829E-001  
  643.50  1.0747E-001  
  644.00  1.0666E-001  
  644.50  1.0589E-001  
  645.00  1.0513E-001  
  645.50  1.0423E-001  
  646.00  1.0319E-001  
  646.50  1.0212E-001  
  647.00  1.0131E-001  
  647.50  1.0060E-001  
  648.00  9.9875E-002  
  648.50  9.8986E-002  
  649.00  9.8002E-002  
  649.50  9.7023E-002  
  650.00  9.6071E-002  
  650.50  9.5178E-002  
  651.00  9.4432E-002  
  651.50  9.3509E-002  
  652.00  9.2468E-002  
  652.50  9.1442E-002  
  653.00  9.0590E-002  
  653.50  8.9816E-002  
  654.00  8.8974E-002  
  654.50  8.8011E-002  
  655.00  8.7116E-002  
  655.50  8.6189E-002  
  656.00  8.5407E-002  
  656.50  8.4569E-002  
  657.00  8.3700E-002  
  657.50  8.2922E-002  
  658.00  8.2046E-002  
  658.50  8.1217E-002  
  659.00  8.0433E-002  
  659.50  7.9802E-002  
  660.00  7.9079E-002  
  660.50  7.8205E-002  
  661.00  7.7167E-002  
  661.50  7.6228E-002  
  662.00  7.5283E-002  
  662.50  7.4464E-002  
  663.00  7.3563E-002  
  663.50  7.2630E-002  
  664.00  7.1708E-002  
  664.50  7.0839E-002  
  665.00  7.0032E-002  
  665.50  6.9264E-002  
  666.00  6.8455E-002  
  666.50  6.7748E-002  
  667.00  6.7017E-002  
  667.50  6.6378E-002  
  668.00  6.5595E-002  
  668.50  6.4759E-002  
  669.00  6.3922E-002  
  669.50  6.3075E-002  
  670.00  6.2240E-002  
  670.50  6.1473E-002  
  671.00  6.0788E-002  
  671.50  6.0153E-002  
  672.00  5.9326E-002  
  672.50  5.8519E-002  
  673.00  5.7858E-002  
  673.50  5.7291E-002  
  674.00  5.6519E-002  
  674.50  5.5714E-002  
  675.00  5.4920E-002  
  675.50  5.4275E-002  
  676.00  5.3638E-002  
  676.50  5.3063E-002  
  677.00  5.2363E-002  
  677.50  5.1623E-002  
  678.00  5.0928E-002  
  678.50  5.0249E-002  
  679.00  4.9550E-002  
  679.50  4.8952E-002  
