
# From lspdd.org
# 
# Name: DEL Philips Streetview-3amber-board Lampadaire
# Indice spectral Valeur 
# MSI 0.05 
# SLI 0.18 
# IPI 0.55 
# Pourcentage de bleu 1.3 
# Caractéristique Valeur 
# CCT calculée (K) 1886 
# CCT du fabricant (K) 1800 
# Tension (V) ND 
# Puissance (W) ND 
# Efficacité lumineuse (Lum/W) ND 
#
# Image: '/app/system/img_2s/2577/medium_image2.JPG?1413486431'
# Image: '/app/system/img_1s/2577/medium_image1.JPG?1413486446'
# 

  273.00  0.0000E+000  
  273.50  0.0000E+000  
  274.00  0.0000E+000  
  274.50  0.0000E+000  
  275.00  0.0000E+000  
  275.50  0.0000E+000  
  276.00  0.0000E+000  
  276.50  0.0000E+000  
  277.00  0.0000E+000  
  277.50  0.0000E+000  
  278.00  0.0000E+000  
  278.50  0.0000E+000  
  279.00  0.0000E+000  
  279.50  0.0000E+000  
  280.00  0.0000E+000  
  280.50  0.0000E+000  
  281.00  0.0000E+000  
  281.50  0.0000E+000  
  282.00  0.0000E+000  
  282.50  0.0000E+000  
  283.00  0.0000E+000  
  283.50  0.0000E+000  
  284.00  0.0000E+000  
  284.50  0.0000E+000  
  285.00  0.0000E+000  
  285.50  0.0000E+000  
  286.00  0.0000E+000  
  286.50  0.0000E+000  
  287.00  0.0000E+000  
  287.50  0.0000E+000  
  288.00  0.0000E+000  
  288.50  0.0000E+000  
  289.00  0.0000E+000  
  289.50  0.0000E+000  
  290.00  0.0000E+000  
  290.50  0.0000E+000  
  291.00  0.0000E+000  
  291.50  0.0000E+000  
  292.00  0.0000E+000  
  292.50  0.0000E+000  
  293.00  0.0000E+000  
  293.50  0.0000E+000  
  294.00  0.0000E+000  
  294.50  0.0000E+000  
  295.00  0.0000E+000  
  295.50  0.0000E+000  
  296.00  0.0000E+000  
  296.50  0.0000E+000  
  297.00  0.0000E+000  
  297.50  0.0000E+000  
  298.00  0.0000E+000  
  298.50  0.0000E+000  
  299.00  0.0000E+000  
  299.50  0.0000E+000  
  300.00  0.0000E+000  
  300.50  0.0000E+000  
  301.00  0.0000E+000  
  301.50  0.0000E+000  
  302.00  0.0000E+000  
  302.50  0.0000E+000  
  303.00  6.7819E-005  
  303.50  6.2622E-005  
  304.00  8.2490E-006  
  304.50  0.0000E+000  
  305.00  0.0000E+000  
  305.50  0.0000E+000  
  306.00  0.0000E+000  
  306.50  0.0000E+000  
  307.00  0.0000E+000  
  307.50  0.0000E+000  
  308.00  0.0000E+000  
  308.50  0.0000E+000  
  309.00  0.0000E+000  
  309.50  0.0000E+000  
  310.00  0.0000E+000  
  310.50  0.0000E+000  
  311.00  0.0000E+000  
  311.50  0.0000E+000  
  312.00  0.0000E+000  
  312.50  0.0000E+000  
  313.00  0.0000E+000  
  313.50  0.0000E+000  
  314.00  0.0000E+000  
  314.50  0.0000E+000  
  315.00  0.0000E+000  
  315.50  0.0000E+000  
  316.00  0.0000E+000  
  316.50  0.0000E+000  
  317.00  0.0000E+000  
  317.50  0.0000E+000  
  318.00  0.0000E+000  
  318.50  0.0000E+000  
  319.00  0.0000E+000  
  319.50  0.0000E+000  
  320.00  0.0000E+000  
  320.50  0.0000E+000  
  321.00  0.0000E+000  
  321.50  0.0000E+000  
  322.00  0.0000E+000  
  322.50  0.0000E+000  
  323.00  0.0000E+000  
  323.50  0.0000E+000  
  324.00  0.0000E+000  
  324.50  0.0000E+000  
  325.00  0.0000E+000  
  325.50  0.0000E+000  
  326.00  0.0000E+000  
  326.50  0.0000E+000  
  327.00  0.0000E+000  
  327.50  0.0000E+000  
  328.00  0.0000E+000  
  328.50  0.0000E+000  
  329.00  0.0000E+000  
  329.50  0.0000E+000  
  330.00  0.0000E+000  
  330.50  2.4799E-006  
  331.00  3.3601E-005  
  331.50  5.7393E-005  
  332.00  7.6148E-005  
  332.50  3.0340E-005  
  333.00  0.0000E+000  
  333.50  0.0000E+000  
  334.00  0.0000E+000  
  334.50  0.0000E+000  
  335.00  0.0000E+000  
  335.50  0.0000E+000  
  336.00  0.0000E+000  
  336.50  0.0000E+000  
  337.00  0.0000E+000  
  337.50  0.0000E+000  
  338.00  0.0000E+000  
  338.50  0.0000E+000  
  339.00  0.0000E+000  
  339.50  6.7794E-006  
  340.00  3.7657E-005  
  340.50  6.2883E-005  
  341.00  0.0000E+000  
  341.50  0.0000E+000  
  342.00  0.0000E+000  
  342.50  0.0000E+000  
  343.00  0.0000E+000  
  343.50  0.0000E+000  
  344.00  0.0000E+000  
  344.50  0.0000E+000  
  345.00  0.0000E+000  
  345.50  0.0000E+000  
  346.00  0.0000E+000  
  346.50  0.0000E+000  
  347.00  0.0000E+000  
  347.50  0.0000E+000  
  348.00  0.0000E+000  
  348.50  0.0000E+000  
  349.00  0.0000E+000  
  349.50  0.0000E+000  
  350.00  0.0000E+000  
  350.50  0.0000E+000  
  351.00  3.4511E-005  
  351.50  5.6469E-005  
  352.00  3.1498E-005  
  352.50  0.0000E+000  
  353.00  0.0000E+000  
  353.50  0.0000E+000  
  354.00  0.0000E+000  
  354.50  0.0000E+000  
  355.00  0.0000E+000  
  355.50  0.0000E+000  
  356.00  0.0000E+000  
  356.50  0.0000E+000  
  357.00  0.0000E+000  
  357.50  0.0000E+000  
  358.00  0.0000E+000  
  358.50  0.0000E+000  
  359.00  0.0000E+000  
  359.50  0.0000E+000  
  360.00  0.0000E+000  
  360.50  0.0000E+000  
  361.00  0.0000E+000  
  361.50  0.0000E+000  
  362.00  0.0000E+000  
  362.50  0.0000E+000  
  363.00  0.0000E+000  
  363.50  0.0000E+000  
  364.00  0.0000E+000  
  364.50  0.0000E+000  
  365.00  0.0000E+000  
  365.50  0.0000E+000  
  366.00  0.0000E+000  
  366.50  0.0000E+000  
  367.00  3.2153E-005  
  367.50  5.4122E-005  
  368.00  5.5289E-005  
  368.50  7.1864E-006  
  369.00  1.4468E-006  
  369.50  0.0000E+000  
  370.00  2.0543E-006  
  370.50  1.9924E-005  
  371.00  4.6397E-005  
  371.50  5.1979E-005  
  372.00  5.0436E-005  
  372.50  2.3328E-005  
  373.00  0.0000E+000  
  373.50  0.0000E+000  
  374.00  4.6574E-009  
  374.50  9.9894E-006  
  375.00  1.9864E-005  
  375.50  1.5811E-005  
  376.00  4.4244E-005  
  376.50  8.0049E-006  
  377.00  0.0000E+000  
  377.50  0.0000E+000  
  378.00  0.0000E+000  
  378.50  0.0000E+000  
  379.00  0.0000E+000  
  379.50  0.0000E+000  
  380.00  0.0000E+000  
  380.50  0.0000E+000  
  381.00  0.0000E+000  
  381.50  0.0000E+000  
  382.00  0.0000E+000  
  382.50  0.0000E+000  
  383.00  0.0000E+000  
  383.50  0.0000E+000  
  384.00  0.0000E+000  
  384.50  0.0000E+000  
  385.00  0.0000E+000  
  385.50  0.0000E+000  
  386.00  0.0000E+000  
  386.50  0.0000E+000  
  387.00  0.0000E+000  
  387.50  0.0000E+000  
  388.00  0.0000E+000  
  388.50  0.0000E+000  
  389.00  0.0000E+000  
  389.50  0.0000E+000  
  390.00  0.0000E+000  
  390.50  0.0000E+000  
  391.00  0.0000E+000  
  391.50  0.0000E+000  
  392.00  3.0939E-006  
  392.50  1.5200E-005  
  393.00  9.7568E-007  
  393.50  0.0000E+000  
  394.00  0.0000E+000  
  394.50  0.0000E+000  
  395.00  0.0000E+000  
  395.50  0.0000E+000  
  396.00  0.0000E+000  
  396.50  0.0000E+000  
  397.00  0.0000E+000  
  397.50  0.0000E+000  
  398.00  0.0000E+000  
  398.50  0.0000E+000  
  399.00  0.0000E+000  
  399.50  0.0000E+000  
  400.00  0.0000E+000  
  400.50  0.0000E+000  
  401.00  0.0000E+000  
  401.50  0.0000E+000  
  402.00  0.0000E+000  
  402.50  0.0000E+000  
  403.00  0.0000E+000  
  403.50  0.0000E+000  
  404.00  0.0000E+000  
  404.50  0.0000E+000  
  405.00  0.0000E+000  
  405.50  0.0000E+000  
  406.00  0.0000E+000  
  406.50  0.0000E+000  
  407.00  0.0000E+000  
  407.50  0.0000E+000  
  408.00  0.0000E+000  
  408.50  0.0000E+000  
  409.00  0.0000E+000  
  409.50  0.0000E+000  
  410.00  0.0000E+000  
  410.50  0.0000E+000  
  411.00  0.0000E+000  
  411.50  0.0000E+000  
  412.00  0.0000E+000  
  412.50  0.0000E+000  
  413.00  0.0000E+000  
  413.50  0.0000E+000  
  414.00  0.0000E+000  
  414.50  0.0000E+000  
  415.00  0.0000E+000  
  415.50  0.0000E+000  
  416.00  0.0000E+000  
  416.50  2.2857E-005  
  417.00  4.1704E-005  
  417.50  4.4886E-005  
  418.00  4.7863E-006  
  418.50  0.0000E+000  
  419.00  0.0000E+000  
  419.50  0.0000E+000  
  420.00  0.0000E+000  
  420.50  0.0000E+000  
  421.00  0.0000E+000  
  421.50  8.8143E-006  
  422.00  4.4572E-005  
  422.50  6.9499E-005  
  423.00  9.7207E-005  
  423.50  1.1184E-004  
  424.00  1.1703E-004  
  424.50  1.1814E-004  
  425.00  6.5755E-005  
  425.50  3.4453E-005  
  426.00  2.7039E-005  
  426.50  5.8326E-005  
  427.00  1.2302E-004  
  427.50  1.2985E-004  
  428.00  1.3641E-004  
  428.50  1.4586E-004  
  429.00  1.7201E-004  
  429.50  2.3234E-004  
  430.00  2.3216E-004  
  430.50  2.2880E-004  
  431.00  2.0068E-004  
  431.50  1.8011E-004  
  432.00  1.9556E-004  
  432.50  2.3176E-004  
  433.00  2.8991E-004  
  433.50  3.6137E-004  
  434.00  3.7530E-004  
  434.50  3.4775E-004  
  435.00  3.2184E-004  
  435.50  3.2586E-004  
  436.00  4.0712E-004  
  436.50  5.0464E-004  
  437.00  6.0300E-004  
  437.50  6.4662E-004  
  438.00  6.8131E-004  
  438.50  7.7206E-004  
  439.00  8.4951E-004  
  439.50  9.2645E-004  
  440.00  9.6096E-004  
  440.50  9.6680E-004  
  441.00  1.0478E-003  
  441.50  1.1690E-003  
  442.00  1.2939E-003  
  442.50  1.3896E-003  
  443.00  1.4765E-003  
  443.50  1.4836E-003  
  444.00  1.4476E-003  
  444.50  1.4558E-003  
  445.00  1.5076E-003  
  445.50  1.5777E-003  
  446.00  1.6689E-003  
  446.50  1.7068E-003  
  447.00  1.6900E-003  
  447.50  1.6403E-003  
  448.00  1.5669E-003  
  448.50  1.4844E-003  
  449.00  1.4574E-003  
  449.50  1.4346E-003  
  450.00  1.4548E-003  
  450.50  1.4868E-003  
  451.00  1.4961E-003  
  451.50  1.4806E-003  
  452.00  1.3946E-003  
  452.50  1.3342E-003  
  453.00  1.2780E-003  
  453.50  1.2502E-003  
  454.00  1.2694E-003  
  454.50  1.2544E-003  
  455.00  1.2283E-003  
  455.50  1.2124E-003  
  456.00  1.1855E-003  
  456.50  1.1913E-003  
  457.00  1.2110E-003  
  457.50  1.1978E-003  
  458.00  1.1761E-003  
  458.50  1.1196E-003  
  459.00  1.1036E-003  
  459.50  1.1317E-003  
  460.00  1.1574E-003  
  460.50  1.1289E-003  
  461.00  1.0036E-003  
  461.50  9.1850E-004  
  462.00  8.4313E-004  
  462.50  8.2856E-004  
  463.00  8.4866E-004  
  463.50  8.7155E-004  
  464.00  9.0044E-004  
  464.50  9.4271E-004  
  465.00  9.2958E-004  
  465.50  8.6885E-004  
  466.00  7.8363E-004  
  466.50  7.0204E-004  
  467.00  6.6198E-004  
  467.50  6.2221E-004  
  468.00  6.2707E-004  
  468.50  6.8391E-004  
  469.00  7.3171E-004  
  469.50  7.3627E-004  
  470.00  6.9419E-004  
  470.50  6.2070E-004  
  471.00  5.8868E-004  
  471.50  5.9243E-004  
  472.00  6.0948E-004  
  472.50  6.2763E-004  
  473.00  6.3505E-004  
  473.50  6.0874E-004  
  474.00  5.4114E-004  
  474.50  4.6260E-004  
  475.00  4.3455E-004  
  475.50  4.6875E-004  
  476.00  5.1425E-004  
  476.50  5.4477E-004  
  477.00  5.0227E-004  
  477.50  4.7852E-004  
  478.00  4.4863E-004  
  478.50  4.3337E-004  
  479.00  4.2292E-004  
  479.50  4.0357E-004  
  480.00  4.2342E-004  
  480.50  4.6604E-004  
  481.00  4.7464E-004  
  481.50  4.7503E-004  
  482.00  4.3353E-004  
  482.50  3.9395E-004  
  483.00  3.5070E-004  
  483.50  3.1798E-004  
  484.00  3.2621E-004  
  484.50  3.5289E-004  
  485.00  3.4924E-004  
  485.50  3.2744E-004  
  486.00  2.9907E-004  
  486.50  3.0706E-004  
  487.00  3.2549E-004  
  487.50  3.1813E-004  
  488.00  3.1131E-004  
  488.50  2.9324E-004  
  489.00  2.7003E-004  
  489.50  2.4028E-004  
  490.00  2.0874E-004  
  490.50  2.1036E-004  
  491.00  2.2488E-004  
  491.50  2.4153E-004  
  492.00  2.4448E-004  
  492.50  2.4255E-004  
  493.00  2.5771E-004  
  493.50  2.5345E-004  
  494.00  2.3663E-004  
  494.50  2.1454E-004  
  495.00  2.0075E-004  
  495.50  1.9618E-004  
  496.00  2.0773E-004  
  496.50  2.2845E-004  
  497.00  2.6625E-004  
  497.50  2.6361E-004  
  498.00  2.5736E-004  
  498.50  2.5206E-004  
  499.00  2.4139E-004  
  499.50  2.4399E-004  
  500.00  2.4109E-004  
  500.50  2.8286E-004  
  501.00  2.9743E-004  
  501.50  2.9829E-004  
  502.00  2.7700E-004  
  502.50  2.8541E-004  
  503.00  3.2324E-004  
  503.50  3.2983E-004  
  504.00  3.0917E-004  
  504.50  2.8039E-004  
  505.00  2.6704E-004  
  505.50  2.5959E-004  
  506.00  2.7036E-004  
  506.50  2.8664E-004  
  507.00  3.3395E-004  
  507.50  3.7646E-004  
  508.00  4.0366E-004  
  508.50  4.3149E-004  
  509.00  4.6070E-004  
  509.50  4.9922E-004  
  510.00  5.1070E-004  
  510.50  4.9305E-004  
  511.00  4.9214E-004  
  511.50  4.9980E-004  
  512.00  5.4319E-004  
  512.50  5.5747E-004  
  513.00  5.7614E-004  
  513.50  5.9242E-004  
  514.00  6.3668E-004  
  514.50  7.0571E-004  
  515.00  7.5043E-004  
  515.50  7.9734E-004  
  516.00  8.2920E-004  
  516.50  8.6261E-004  
  517.00  9.0006E-004  
  517.50  9.3713E-004  
  518.00  9.9352E-004  
  518.50  1.0811E-003  
  519.00  1.1638E-003  
  519.50  1.2407E-003  
  520.00  1.2998E-003  
  520.50  1.3561E-003  
  521.00  1.3983E-003  
  521.50  1.4711E-003  
  522.00  1.5434E-003  
  522.50  1.6274E-003  
  523.00  1.7107E-003  
  523.50  1.7986E-003  
  524.00  1.8897E-003  
  524.50  1.9888E-003  
  525.00  2.0564E-003  
  525.50  2.1428E-003  
  526.00  2.2642E-003  
  526.50  2.4202E-003  
  527.00  2.5707E-003  
  527.50  2.7018E-003  
  528.00  2.8176E-003  
  528.50  2.9515E-003  
  529.00  3.0944E-003  
  529.50  3.2794E-003  
  530.00  3.4679E-003  
  530.50  3.6697E-003  
  531.00  3.8603E-003  
  531.50  4.0336E-003  
  532.00  4.2201E-003  
  532.50  4.4251E-003  
  533.00  4.6537E-003  
  533.50  4.8800E-003  
  534.00  5.1179E-003  
  534.50  5.3767E-003  
  535.00  5.6565E-003  
  535.50  5.9628E-003  
  536.00  6.2357E-003  
  536.50  6.5095E-003  
  537.00  6.7975E-003  
  537.50  7.1200E-003  
  538.00  7.4438E-003  
  538.50  7.7675E-003  
  539.00  8.1117E-003  
  539.50  8.5012E-003  
  540.00  8.9777E-003  
  540.50  9.4432E-003  
  541.00  9.8497E-003  
  541.50  1.0247E-002  
  542.00  1.0650E-002  
  542.50  1.1099E-002  
  543.00  1.1567E-002  
  543.50  1.2035E-002  
  544.00  1.2562E-002  
  544.50  1.3090E-002  
  545.00  1.3640E-002  
  545.50  1.4200E-002  
  546.00  1.4803E-002  
  546.50  1.5436E-002  
  547.00  1.6033E-002  
  547.50  1.6616E-002  
  548.00  1.7199E-002  
  548.50  1.7811E-002  
  549.00  1.8472E-002  
  549.50  1.9151E-002  
  550.00  1.9806E-002  
  550.50  2.0456E-002  
  551.00  2.1145E-002  
  551.50  2.1930E-002  
  552.00  2.2794E-002  
  552.50  2.3636E-002  
  553.00  2.4452E-002  
  553.50  2.5276E-002  
  554.00  2.6081E-002  
  554.50  2.6897E-002  
  555.00  2.7695E-002  
  555.50  2.8512E-002  
  556.00  2.9409E-002  
  556.50  3.0273E-002  
  557.00  3.1111E-002  
  557.50  3.1968E-002  
  558.00  3.2825E-002  
  558.50  3.3821E-002  
  559.00  3.4784E-002  
  559.50  3.5707E-002  
  560.00  3.6623E-002  
  560.50  3.7495E-002  
  561.00  3.8446E-002  
  561.50  3.9350E-002  
  562.00  4.0260E-002  
  562.50  4.1210E-002  
  563.00  4.2190E-002  
  563.50  4.3209E-002  
  564.00  4.4113E-002  
  564.50  4.5002E-002  
  565.00  4.5876E-002  
  565.50  4.6782E-002  
  566.00  4.7708E-002  
  566.50  4.8598E-002  
  567.00  4.9467E-002  
  567.50  5.0275E-002  
  568.00  5.1119E-002  
  568.50  5.2046E-002  
  569.00  5.2992E-002  
  569.50  5.3877E-002  
  570.00  5.4674E-002  
  570.50  5.5503E-002  
  571.00  5.6374E-002  
  571.50  5.7255E-002  
  572.00  5.8139E-002  
  572.50  5.8939E-002  
  573.00  5.9716E-002  
  573.50  6.0396E-002  
  574.00  6.1025E-002  
  574.50  6.1618E-002  
  575.00  6.2244E-002  
  575.50  6.2934E-002  
  576.00  6.3743E-002  
  576.50  6.4511E-002  
  577.00  6.5288E-002  
  577.50  6.5913E-002  
  578.00  6.6456E-002  
  578.50  6.6964E-002  
  579.00  6.7476E-002  
  579.50  6.8041E-002  
  580.00  6.8578E-002  
  580.50  6.9051E-002  
  581.00  6.9569E-002  
  581.50  7.0033E-002  
  582.00  7.0361E-002  
  582.50  7.0629E-002  
  583.00  7.0938E-002  
  583.50  7.1395E-002  
  584.00  7.1895E-002  
  584.50  7.2300E-002  
  585.00  7.2629E-002  
  585.50  7.2816E-002  
  586.00  7.3028E-002  
  586.50  7.3287E-002  
  587.00  7.3526E-002  
  587.50  7.3695E-002  
  588.00  7.3774E-002  
  588.50  7.3846E-002  
  589.00  7.4021E-002  
  589.50  7.4117E-002  
  590.00  7.4285E-002  
  590.50  7.4487E-002  
  591.00  7.4704E-002  
  591.50  7.4862E-002  
  592.00  7.4897E-002  
  592.50  7.4868E-002  
  593.00  7.4913E-002  
  593.50  7.4838E-002  
  594.00  7.4817E-002  
  594.50  7.4735E-002  
  595.00  7.4557E-002  
  595.50  7.4298E-002  
  596.00  7.4166E-002  
  596.50  7.4168E-002  
  597.00  7.4132E-002  
  597.50  7.3945E-002  
  598.00  7.3621E-002  
  598.50  7.3247E-002  
  599.00  7.2835E-002  
  599.50  7.2571E-002  
  600.00  7.2437E-002  
  600.50  7.2286E-002  
  601.00  7.2107E-002  
  601.50  7.1790E-002  
  602.00  7.1473E-002  
  602.50  7.1191E-002  
  603.00  7.0845E-002  
  603.50  7.0470E-002  
  604.00  6.9976E-002  
  604.50  6.9513E-002  
  605.00  6.9107E-002  
  605.50  6.8822E-002  
  606.00  6.8472E-002  
  606.50  6.8162E-002  
  607.00  6.7701E-002  
  607.50  6.7235E-002  
  608.00  6.6814E-002  
  608.50  6.6263E-002  
  609.00  6.5792E-002  
  609.50  6.5401E-002  
  610.00  6.5138E-002  
  610.50  6.4772E-002  
  611.00  6.4265E-002  
  611.50  6.3688E-002  
  612.00  6.3144E-002  
  612.50  6.2619E-002  
  613.00  6.2187E-002  
  613.50  6.1834E-002  
  614.00  6.1437E-002  
  614.50  6.0949E-002  
  615.00  6.0387E-002  
  615.50  5.9852E-002  
  616.00  5.9346E-002  
  616.50  5.8876E-002  
  617.00  5.8351E-002  
  617.50  5.7751E-002  
  618.00  5.7091E-002  
  618.50  5.6574E-002  
  619.00  5.6130E-002  
  619.50  5.5597E-002  
  620.00  5.4988E-002  
  620.50  5.4353E-002  
  621.00  5.3872E-002  
  621.50  5.3428E-002  
  622.00  5.2967E-002  
  622.50  5.2481E-002  
  623.00  5.1937E-002  
  623.50  5.1471E-002  
  624.00  5.0883E-002  
  624.50  5.0284E-002  
  625.00  4.9594E-002  
  625.50  4.9061E-002  
  626.00  4.8565E-002  
  626.50  4.8123E-002  
  627.00  4.7561E-002  
  627.50  4.6984E-002  
  628.00  4.6335E-002  
  628.50  4.5813E-002  
  629.00  4.5378E-002  
  629.50  4.4924E-002  
  630.00  4.4533E-002  
  630.50  4.4085E-002  
  631.00  4.3632E-002  
  631.50  4.3121E-002  
  632.00  4.2589E-002  
  632.50  4.2053E-002  
  633.00  4.1518E-002  
  633.50  4.0990E-002  
  634.00  4.0483E-002  
  634.50  3.9961E-002  
  635.00  3.9359E-002  
  635.50  3.8929E-002  
  636.00  3.8522E-002  
  636.50  3.8123E-002  
  637.00  3.7637E-002  
  637.50  3.7147E-002  
  638.00  3.6693E-002  
  638.50  3.6173E-002  
  639.00  3.5649E-002  
  639.50  3.5188E-002  
  640.00  3.4746E-002  
  640.50  3.4251E-002  
  641.00  3.3839E-002  
  641.50  3.3396E-002  
  642.00  3.2967E-002  
  642.50  3.2471E-002  
  643.00  3.1942E-002  
  643.50  3.1380E-002  
  644.00  3.0907E-002  
  644.50  3.0541E-002  
  645.00  3.0237E-002  
  645.50  2.9873E-002  
  646.00  2.9524E-002  
  646.50  2.9221E-002  
  647.00  2.8839E-002  
  647.50  2.8384E-002  
  648.00  2.7932E-002  
  648.50  2.7533E-002  
  649.00  2.7144E-002  
  649.50  2.6662E-002  
  650.00  2.6207E-002  
  650.50  2.5850E-002  
  651.00  2.5587E-002  
  651.50  2.5255E-002  
  652.00  2.4814E-002  
  652.50  2.4430E-002  
  653.00  2.4091E-002  
  653.50  2.3787E-002  
  654.00  2.3373E-002  
  654.50  2.2972E-002  
  655.00  2.2573E-002  
  655.50  2.2224E-002  
  656.00  2.1883E-002  
  656.50  2.1543E-002  
  657.00  2.1171E-002  
  657.50  2.0769E-002  
  658.00  2.0460E-002  
  658.50  2.0219E-002  
  659.00  2.0006E-002  
  659.50  1.9732E-002  
  660.00  1.9396E-002  
  660.50  1.9085E-002  
  661.00  1.8734E-002  
  661.50  1.8490E-002  
  662.00  1.8307E-002  
  662.50  1.8075E-002  
  663.00  1.7799E-002  
  663.50  1.7443E-002  
  664.00  1.7150E-002  
  664.50  1.6909E-002  
  665.00  1.6593E-002  
  665.50  1.6334E-002  
  666.00  1.6028E-002  
  666.50  1.5788E-002  
  667.00  1.5497E-002  
  667.50  1.5286E-002  
  668.00  1.5081E-002  
  668.50  1.4842E-002  
  669.00  1.4555E-002  
  669.50  1.4313E-002  
  670.00  1.4086E-002  
  670.50  1.3843E-002  
  671.00  1.3579E-002  
  671.50  1.3398E-002  
  672.00  1.3210E-002  
  672.50  1.3037E-002  
  673.00  1.2776E-002  
  673.50  1.2526E-002  
  674.00  1.2320E-002  
  674.50  1.2149E-002  
  675.00  1.1946E-002  
  675.50  1.1711E-002  
  676.00  1.1465E-002  
  676.50  1.1289E-002  
  677.00  1.1146E-002  
  677.50  1.1005E-002  
  678.00  1.0802E-002  
  678.50  1.0546E-002  
  679.00  1.0324E-002  
  679.50  1.0118E-002  
