
# From lspdd.org
# 
# Name: DEL Ledtech Bridgelux-2760K-filtered Lampadaire
# Indice spectral Valeur 
# MSI 0.09 
# SLI 0.24 
# IPI 0.44 
# Pourcentage de bleu 4.4 
# Caractéristique Valeur 
# CCT calculée (K) 2308 
# CCT du fabricant (K) 2260 
# Tension (V) ND 
# Puissance (W) 56.0 
# Efficacité lumineuse (Lum/W) 61.0 
#
# Image: '/app/system/img_1s/2579/medium_image1.JPG?1413486465'
# 

  273.00  0.0000E+000  
  273.50  0.0000E+000  
  274.00  0.0000E+000  
  274.50  0.0000E+000  
  275.00  0.0000E+000  
  275.50  0.0000E+000  
  276.00  0.0000E+000  
  276.50  0.0000E+000  
  277.00  0.0000E+000  
  277.50  0.0000E+000  
  278.00  0.0000E+000  
  278.50  0.0000E+000  
  279.00  0.0000E+000  
  279.50  0.0000E+000  
  280.00  0.0000E+000  
  280.50  0.0000E+000  
  281.00  0.0000E+000  
  281.50  0.0000E+000  
  282.00  0.0000E+000  
  282.50  0.0000E+000  
  283.00  0.0000E+000  
  283.50  0.0000E+000  
  284.00  0.0000E+000  
  284.50  0.0000E+000  
  285.00  0.0000E+000  
  285.50  0.0000E+000  
  286.00  0.0000E+000  
  286.50  0.0000E+000  
  287.00  0.0000E+000  
  287.50  0.0000E+000  
  288.00  0.0000E+000  
  288.50  0.0000E+000  
  289.00  0.0000E+000  
  289.50  0.0000E+000  
  290.00  0.0000E+000  
  290.50  0.0000E+000  
  291.00  0.0000E+000  
  291.50  0.0000E+000  
  292.00  0.0000E+000  
  292.50  0.0000E+000  
  293.00  0.0000E+000  
  293.50  0.0000E+000  
  294.00  0.0000E+000  
  294.50  0.0000E+000  
  295.00  0.0000E+000  
  295.50  0.0000E+000  
  296.00  0.0000E+000  
  296.50  0.0000E+000  
  297.00  0.0000E+000  
  297.50  0.0000E+000  
  298.00  0.0000E+000  
  298.50  0.0000E+000  
  299.00  0.0000E+000  
  299.50  0.0000E+000  
  300.00  5.5282E-006  
  300.50  1.5832E-005  
  301.00  1.3056E-005  
  301.50  6.8340E-006  
  302.00  4.8012E-006  
  302.50  1.2630E-006  
  303.00  0.0000E+000  
  303.50  0.0000E+000  
  304.00  0.0000E+000  
  304.50  2.2000E-007  
  305.00  3.7285E-006  
  305.50  7.0345E-006  
  306.00  7.8650E-006  
  306.50  4.4632E-006  
  307.00  5.8068E-007  
  307.50  9.5795E-007  
  308.00  1.9753E-006  
  308.50  6.0932E-006  
  309.00  7.9154E-006  
  309.50  1.0093E-005  
  310.00  1.0552E-005  
  310.50  1.0807E-005  
  311.00  1.0922E-005  
  311.50  4.0869E-006  
  312.00  3.2423E-006  
  312.50  3.3687E-006  
  313.00  1.5580E-006  
  313.50  6.5541E-006  
  314.00  6.2365E-006  
  314.50  2.4568E-006  
  315.00  5.3340E-007  
  315.50  0.0000E+000  
  316.00  4.8529E-006  
  316.50  9.9333E-006  
  317.00  1.3810E-005  
  317.50  1.0786E-005  
  318.00  8.8603E-006  
  318.50  7.8476E-006  
  319.00  2.3177E-006  
  319.50  0.0000E+000  
  320.00  0.0000E+000  
  320.50  0.0000E+000  
  321.00  0.0000E+000  
  321.50  0.0000E+000  
  322.00  0.0000E+000  
  322.50  0.0000E+000  
  323.00  0.0000E+000  
  323.50  0.0000E+000  
  324.00  0.0000E+000  
  324.50  0.0000E+000  
  325.00  0.0000E+000  
  325.50  0.0000E+000  
  326.00  0.0000E+000  
  326.50  0.0000E+000  
  327.00  0.0000E+000  
  327.50  0.0000E+000  
  328.00  0.0000E+000  
  328.50  8.4120E-007  
  329.00  8.4856E-006  
  329.50  1.0192E-005  
  330.00  1.0638E-005  
  330.50  4.1279E-006  
  331.00  4.7182E-007  
  331.50  0.0000E+000  
  332.00  0.0000E+000  
  332.50  0.0000E+000  
  333.00  0.0000E+000  
  333.50  0.0000E+000  
  334.00  0.0000E+000  
  334.50  0.0000E+000  
  335.00  0.0000E+000  
  335.50  0.0000E+000  
  336.00  0.0000E+000  
  336.50  0.0000E+000  
  337.00  0.0000E+000  
  337.50  0.0000E+000  
  338.00  0.0000E+000  
  338.50  0.0000E+000  
  339.00  0.0000E+000  
  339.50  1.5783E-006  
  340.00  5.4322E-006  
  340.50  4.8236E-006  
  341.00  5.6261E-006  
  341.50  4.2780E-006  
  342.00  4.5600E-006  
  342.50  1.2110E-006  
  343.00  8.9325E-007  
  343.50  5.4875E-006  
  344.00  8.2883E-006  
  344.50  1.0451E-005  
  345.00  1.1919E-005  
  345.50  6.8384E-006  
  346.00  8.1687E-007  
  346.50  0.0000E+000  
  347.00  0.0000E+000  
  347.50  0.0000E+000  
  348.00  0.0000E+000  
  348.50  0.0000E+000  
  349.00  0.0000E+000  
  349.50  0.0000E+000  
  350.00  0.0000E+000  
  350.50  0.0000E+000  
  351.00  5.5455E-007  
  351.50  8.7185E-006  
  352.00  1.3283E-005  
  352.50  1.0606E-005  
  353.00  3.2621E-006  
  353.50  0.0000E+000  
  354.00  1.0603E-007  
  354.50  3.4725E-006  
  355.00  5.1531E-006  
  355.50  3.8604E-007  
  356.00  0.0000E+000  
  356.50  0.0000E+000  
  357.00  0.0000E+000  
  357.50  0.0000E+000  
  358.00  0.0000E+000  
  358.50  0.0000E+000  
  359.00  0.0000E+000  
  359.50  0.0000E+000  
  360.00  0.0000E+000  
  360.50  0.0000E+000  
  361.00  0.0000E+000  
  361.50  0.0000E+000  
  362.00  2.8570E-007  
  362.50  2.5176E-006  
  363.00  2.5973E-006  
  363.50  1.3192E-006  
  364.00  1.1966E-008  
  364.50  0.0000E+000  
  365.00  0.0000E+000  
  365.50  0.0000E+000  
  366.00  0.0000E+000  
  366.50  0.0000E+000  
  367.00  0.0000E+000  
  367.50  0.0000E+000  
  368.00  0.0000E+000  
  368.50  0.0000E+000  
  369.00  0.0000E+000  
  369.50  0.0000E+000  
  370.00  0.0000E+000  
  370.50  0.0000E+000  
  371.00  0.0000E+000  
  371.50  0.0000E+000  
  372.00  0.0000E+000  
  372.50  0.0000E+000  
  373.00  0.0000E+000  
  373.50  0.0000E+000  
  374.00  0.0000E+000  
  374.50  0.0000E+000  
  375.00  0.0000E+000  
  375.50  0.0000E+000  
  376.00  0.0000E+000  
  376.50  0.0000E+000  
  377.00  1.8938E-007  
  377.50  3.0207E-006  
  378.00  7.1931E-006  
  378.50  1.1519E-005  
  379.00  8.0929E-006  
  379.50  2.5744E-006  
  380.00  0.0000E+000  
  380.50  0.0000E+000  
  381.00  3.0346E-008  
  381.50  3.1995E-007  
  382.00  0.0000E+000  
  382.50  0.0000E+000  
  383.00  0.0000E+000  
  383.50  1.6522E-006  
  384.00  1.2454E-005  
  384.50  1.8201E-005  
  385.00  1.8419E-005  
  385.50  1.4353E-005  
  386.00  9.2131E-006  
  386.50  4.8746E-006  
  387.00  2.9087E-006  
  387.50  2.1800E-006  
  388.00  1.9332E-006  
  388.50  2.6943E-006  
  389.00  1.6805E-006  
  389.50  0.0000E+000  
  390.00  0.0000E+000  
  390.50  0.0000E+000  
  391.00  0.0000E+000  
  391.50  0.0000E+000  
  392.00  0.0000E+000  
  392.50  0.0000E+000  
  393.00  0.0000E+000  
  393.50  6.4597E-007  
  394.00  4.1234E-006  
  394.50  8.1224E-006  
  395.00  8.5952E-006  
  395.50  3.8589E-006  
  396.00  2.9696E-006  
  396.50  9.1501E-007  
  397.00  0.0000E+000  
  397.50  0.0000E+000  
  398.00  0.0000E+000  
  398.50  0.0000E+000  
  399.00  7.4943E-007  
  399.50  2.9728E-006  
  400.00  5.1264E-006  
  400.50  1.1904E-006  
  401.00  0.0000E+000  
  401.50  0.0000E+000  
  402.00  0.0000E+000  
  402.50  0.0000E+000  
  403.00  0.0000E+000  
  403.50  0.0000E+000  
  404.00  0.0000E+000  
  404.50  8.6296E-008  
  405.00  1.3634E-006  
  405.50  1.1495E-006  
  406.00  0.0000E+000  
  406.50  0.0000E+000  
  407.00  0.0000E+000  
  407.50  0.0000E+000  
  408.00  0.0000E+000  
  408.50  0.0000E+000  
  409.00  0.0000E+000  
  409.50  1.9788E-006  
  410.00  1.2037E-005  
  410.50  2.0467E-005  
  411.00  2.5135E-005  
  411.50  2.5681E-005  
  412.00  1.9833E-005  
  412.50  1.3447E-005  
  413.00  8.3805E-006  
  413.50  5.0460E-006  
  414.00  1.3338E-006  
  414.50  1.3060E-006  
  415.00  3.7077E-006  
  415.50  6.7892E-006  
  416.00  9.6880E-006  
  416.50  7.6722E-006  
  417.00  3.0927E-006  
  417.50  6.8158E-007  
  418.00  0.0000E+000  
  418.50  0.0000E+000  
  419.00  0.0000E+000  
  419.50  6.8138E-006  
  420.00  1.4013E-005  
  420.50  1.6158E-005  
  421.00  1.2350E-005  
  421.50  1.0985E-005  
  422.00  1.3389E-005  
  422.50  1.5571E-005  
  423.00  1.2667E-005  
  423.50  1.0086E-005  
  424.00  1.0118E-005  
  424.50  1.3650E-005  
  425.00  1.7616E-005  
  425.50  1.2468E-005  
  426.00  1.3597E-005  
  426.50  1.8125E-005  
  427.00  2.4851E-005  
  427.50  3.6838E-005  
  428.00  3.9970E-005  
  428.50  3.8873E-005  
  429.00  3.4644E-005  
  429.50  3.0656E-005  
  430.00  2.8101E-005  
  430.50  2.7808E-005  
  431.00  2.6126E-005  
  431.50  2.6774E-005  
  432.00  2.6047E-005  
  432.50  2.9755E-005  
  433.00  3.5760E-005  
  433.50  4.2793E-005  
  434.00  5.1087E-005  
  434.50  5.1316E-005  
  435.00  5.4447E-005  
  435.50  5.3501E-005  
  436.00  5.3799E-005  
  436.50  5.3484E-005  
  437.00  5.3966E-005  
  437.50  5.3832E-005  
  438.00  5.6844E-005  
  438.50  5.8606E-005  
  439.00  6.2743E-005  
  439.50  7.2895E-005  
  440.00  8.7171E-005  
  440.50  1.0105E-004  
  441.00  1.1279E-004  
  441.50  1.1584E-004  
  442.00  1.1472E-004  
  442.50  1.1227E-004  
  443.00  1.1826E-004  
  443.50  1.2197E-004  
  444.00  1.2835E-004  
  444.50  1.3227E-004  
  445.00  1.3629E-004  
  445.50  1.4630E-004  
  446.00  1.5013E-004  
  446.50  1.5194E-004  
  447.00  1.5164E-004  
  447.50  1.5309E-004  
  448.00  1.5538E-004  
  448.50  1.5720E-004  
  449.00  1.5887E-004  
  449.50  1.5861E-004  
  450.00  1.5721E-004  
  450.50  1.4993E-004  
  451.00  1.4080E-004  
  451.50  1.3613E-004  
  452.00  1.3149E-004  
  452.50  1.3141E-004  
  453.00  1.3307E-004  
  453.50  1.2971E-004  
  454.00  1.2666E-004  
  454.50  1.1701E-004  
  455.00  1.0620E-004  
  455.50  1.0222E-004  
  456.00  1.0175E-004  
  456.50  1.0447E-004  
  457.00  1.0480E-004  
  457.50  1.0626E-004  
  458.00  1.0622E-004  
  458.50  1.0408E-004  
  459.00  9.9859E-005  
  459.50  9.4268E-005  
  460.00  9.4836E-005  
  460.50  9.4663E-005  
  461.00  9.3096E-005  
  461.50  9.2325E-005  
  462.00  8.6220E-005  
  462.50  8.5802E-005  
  463.00  8.5265E-005  
  463.50  8.1097E-005  
  464.00  7.6859E-005  
  464.50  7.1803E-005  
  465.00  7.3095E-005  
  465.50  7.4992E-005  
  466.00  7.5996E-005  
  466.50  7.5022E-005  
  467.00  7.1164E-005  
  467.50  7.1647E-005  
  468.00  7.0233E-005  
  468.50  6.8981E-005  
  469.00  6.7223E-005  
  469.50  6.7593E-005  
  470.00  6.4820E-005  
  470.50  6.7311E-005  
  471.00  6.5904E-005  
  471.50  6.7866E-005  
  472.00  6.6215E-005  
  472.50  6.4694E-005  
  473.00  6.1867E-005  
  473.50  6.0059E-005  
  474.00  6.0382E-005  
  474.50  5.9699E-005  
  475.00  6.0098E-005  
  475.50  6.2007E-005  
  476.00  6.2957E-005  
  476.50  6.5135E-005  
  477.00  6.2095E-005  
  477.50  5.6400E-005  
  478.00  5.2010E-005  
  478.50  5.2046E-005  
  479.00  5.3509E-005  
  479.50  5.3977E-005  
  480.00  5.1835E-005  
  480.50  5.1466E-005  
  481.00  5.1873E-005  
  481.50  5.1715E-005  
  482.00  4.7923E-005  
  482.50  4.6475E-005  
  483.00  4.5854E-005  
  483.50  4.4953E-005  
  484.00  4.3300E-005  
  484.50  4.0957E-005  
  485.00  3.8231E-005  
  485.50  3.8625E-005  
  486.00  3.6145E-005  
  486.50  3.3765E-005  
  487.00  3.3238E-005  
  487.50  3.1836E-005  
  488.00  3.1742E-005  
  488.50  3.0255E-005  
  489.00  2.8800E-005  
  489.50  2.6269E-005  
  490.00  2.5896E-005  
  490.50  2.7049E-005  
  491.00  2.9992E-005  
  491.50  3.2215E-005  
  492.00  2.9551E-005  
  492.50  2.5608E-005  
  493.00  2.3826E-005  
  493.50  2.3463E-005  
  494.00  2.3667E-005  
  494.50  2.0692E-005  
  495.00  1.7854E-005  
  495.50  1.6575E-005  
  496.00  1.7587E-005  
  496.50  1.9569E-005  
  497.00  1.8813E-005  
  497.50  1.7288E-005  
  498.00  1.7905E-005  
  498.50  1.9027E-005  
  499.00  2.2180E-005  
  499.50  2.1154E-005  
  500.00  1.9745E-005  
  500.50  1.8504E-005  
  501.00  2.0365E-005  
  501.50  1.9836E-005  
  502.00  1.8337E-005  
  502.50  1.5421E-005  
  503.00  1.3344E-005  
  503.50  1.4458E-005  
  504.00  1.7272E-005  
  504.50  1.9970E-005  
  505.00  2.1139E-005  
  505.50  2.2803E-005  
  506.00  2.1727E-005  
  506.50  1.9903E-005  
  507.00  1.6545E-005  
  507.50  1.3848E-005  
  508.00  1.6004E-005  
  508.50  1.6505E-005  
  509.00  1.8560E-005  
  509.50  1.7105E-005  
  510.00  1.6690E-005  
  510.50  1.7393E-005  
  511.00  1.8199E-005  
  511.50  2.0535E-005  
  512.00  2.2965E-005  
  512.50  2.4792E-005  
  513.00  2.5281E-005  
  513.50  2.5604E-005  
  514.00  2.6765E-005  
  514.50  2.8011E-005  
  515.00  3.0438E-005  
  515.50  3.3469E-005  
  516.00  3.5864E-005  
  516.50  3.9150E-005  
  517.00  4.1321E-005  
  517.50  4.4983E-005  
  518.00  4.6232E-005  
  518.50  4.5527E-005  
  519.00  4.5781E-005  
  519.50  4.7296E-005  
  520.00  5.1715E-005  
  520.50  5.6102E-005  
  521.00  5.8472E-005  
  521.50  6.1538E-005  
  522.00  6.3504E-005  
  522.50  6.7723E-005  
  523.00  7.1888E-005  
  523.50  7.5216E-005  
  524.00  7.7104E-005  
  524.50  8.1279E-005  
  525.00  8.7001E-005  
  525.50  9.1980E-005  
  526.00  9.9017E-005  
  526.50  1.0409E-004  
  527.00  1.1186E-004  
  527.50  1.1952E-004  
  528.00  1.2560E-004  
  528.50  1.3421E-004  
  529.00  1.4420E-004  
  529.50  1.5262E-004  
  530.00  1.6057E-004  
  530.50  1.6652E-004  
  531.00  1.7306E-004  
  531.50  1.8341E-004  
  532.00  1.9649E-004  
  532.50  2.1014E-004  
  533.00  2.2172E-004  
  533.50  2.3098E-004  
  534.00  2.4108E-004  
  534.50  2.5357E-004  
  535.00  2.6952E-004  
  535.50  2.8177E-004  
  536.00  2.9583E-004  
  536.50  3.1141E-004  
  537.00  3.2947E-004  
  537.50  3.4757E-004  
  538.00  3.6408E-004  
  538.50  3.8054E-004  
  539.00  3.9379E-004  
  539.50  4.0835E-004  
  540.00  4.2484E-004  
  540.50  4.4459E-004  
  541.00  4.6760E-004  
  541.50  4.8753E-004  
  542.00  5.0416E-004  
  542.50  5.2232E-004  
  543.00  5.4062E-004  
  543.50  5.6218E-004  
  544.00  5.8288E-004  
  544.50  6.0254E-004  
  545.00  6.2833E-004  
  545.50  6.5351E-004  
  546.00  6.7786E-004  
  546.50  6.9686E-004  
  547.00  7.1469E-004  
  547.50  7.3886E-004  
  548.00  7.6395E-004  
  548.50  7.8862E-004  
  549.00  8.1020E-004  
  549.50  8.3076E-004  
  550.00  8.5296E-004  
  550.50  8.7549E-004  
  551.00  8.9633E-004  
  551.50  9.2087E-004  
  552.00  9.4347E-004  
  552.50  9.6616E-004  
  553.00  9.8881E-004  
  553.50  1.0122E-003  
  554.00  1.0372E-003  
  554.50  1.0626E-003  
  555.00  1.0865E-003  
  555.50  1.1155E-003  
  556.00  1.1413E-003  
  556.50  1.1636E-003  
  557.00  1.1829E-003  
  557.50  1.2026E-003  
  558.00  1.2262E-003  
  558.50  1.2511E-003  
  559.00  1.2782E-003  
  559.50  1.3031E-003  
  560.00  1.3290E-003  
  560.50  1.3497E-003  
  561.00  1.3701E-003  
  561.50  1.3953E-003  
  562.00  1.4194E-003  
  562.50  1.4477E-003  
  563.00  1.4657E-003  
  563.50  1.4834E-003  
  564.00  1.5019E-003  
  564.50  1.5234E-003  
  565.00  1.5444E-003  
  565.50  1.5645E-003  
  566.00  1.5807E-003  
  566.50  1.5958E-003  
  567.00  1.6098E-003  
  567.50  1.6320E-003  
  568.00  1.6548E-003  
  568.50  1.6787E-003  
  569.00  1.6964E-003  
  569.50  1.7173E-003  
  570.00  1.7367E-003  
  570.50  1.7546E-003  
  571.00  1.7672E-003  
  571.50  1.7780E-003  
  572.00  1.7922E-003  
  572.50  1.8053E-003  
  573.00  1.8191E-003  
  573.50  1.8348E-003  
  574.00  1.8490E-003  
  574.50  1.8633E-003  
  575.00  1.8722E-003  
  575.50  1.8828E-003  
  576.00  1.8917E-003  
  576.50  1.8997E-003  
  577.00  1.9073E-003  
  577.50  1.9163E-003  
  578.00  1.9248E-003  
  578.50  1.9321E-003  
  579.00  1.9348E-003  
  579.50  1.9374E-003  
  580.00  1.9370E-003  
  580.50  1.9417E-003  
  581.00  1.9447E-003  
  581.50  1.9484E-003  
  582.00  1.9502E-003  
  582.50  1.9556E-003  
  583.00  1.9613E-003  
  583.50  1.9663E-003  
  584.00  1.9674E-003  
  584.50  1.9620E-003  
  585.00  1.9535E-003  
  585.50  1.9420E-003  
  586.00  1.9396E-003  
  586.50  1.9391E-003  
  587.00  1.9427E-003  
  587.50  1.9386E-003  
  588.00  1.9305E-003  
  588.50  1.9189E-003  
  589.00  1.9117E-003  
  589.50  1.9130E-003  
  590.00  1.9167E-003  
  590.50  1.9166E-003  
  591.00  1.9030E-003  
  591.50  1.8888E-003  
  592.00  1.8762E-003  
  592.50  1.8686E-003  
  593.00  1.8577E-003  
  593.50  1.8438E-003  
  594.00  1.8366E-003  
  594.50  1.8297E-003  
  595.00  1.8260E-003  
  595.50  1.8152E-003  
  596.00  1.8074E-003  
  596.50  1.7919E-003  
  597.00  1.7834E-003  
  597.50  1.7734E-003  
  598.00  1.7698E-003  
  598.50  1.7600E-003  
  599.00  1.7584E-003  
  599.50  1.7510E-003  
  600.00  1.7325E-003  
  600.50  1.7073E-003  
  601.00  1.6902E-003  
  601.50  1.6844E-003  
  602.00  1.6835E-003  
  602.50  1.6754E-003  
  603.00  1.6647E-003  
  603.50  1.6461E-003  
  604.00  1.6328E-003  
  604.50  1.6215E-003  
  605.00  1.6136E-003  
  605.50  1.5925E-003  
  606.00  1.5734E-003  
  606.50  1.5644E-003  
  607.00  1.5658E-003  
  607.50  1.5612E-003  
  608.00  1.5435E-003  
  608.50  1.5261E-003  
  609.00  1.5188E-003  
  609.50  1.5154E-003  
  610.00  1.5089E-003  
  610.50  1.4964E-003  
  611.00  1.4837E-003  
  611.50  1.4713E-003  
  612.00  1.4630E-003  
  612.50  1.4543E-003  
  613.00  1.4470E-003  
  613.50  1.4340E-003  
  614.00  1.4222E-003  
  614.50  1.4087E-003  
  615.00  1.3958E-003  
  615.50  1.3805E-003  
  616.00  1.3699E-003  
  616.50  1.3646E-003  
  617.00  1.3552E-003  
  617.50  1.3411E-003  
  618.00  1.3198E-003  
  618.50  1.3000E-003  
  619.00  1.2795E-003  
  619.50  1.2616E-003  
  620.00  1.2548E-003  
  620.50  1.2480E-003  
  621.00  1.2384E-003  
  621.50  1.2213E-003  
  622.00  1.2059E-003  
  622.50  1.1895E-003  
  623.00  1.1712E-003  
  623.50  1.1536E-003  
  624.00  1.1436E-003  
  624.50  1.1295E-003  
  625.00  1.1130E-003  
  625.50  1.0923E-003  
  626.00  1.0743E-003  
  626.50  1.0507E-003  
  627.00  1.0261E-003  
  627.50  1.0074E-003  
  628.00  9.9303E-004  
  628.50  9.7506E-004  
  629.00  9.5455E-004  
  629.50  9.3331E-004  
  630.00  9.1919E-004  
  630.50  9.0179E-004  
  631.00  8.8319E-004  
  631.50  8.6232E-004  
  632.00  8.4224E-004  
  632.50  8.2227E-004  
  633.00  7.9992E-004  
  633.50  7.7447E-004  
  634.00  7.5589E-004  
  634.50  7.3967E-004  
  635.00  7.2242E-004  
  635.50  6.9624E-004  
  636.00  6.6989E-004  
  636.50  6.5030E-004  
  637.00  6.3173E-004  
  637.50  6.1655E-004  
  638.00  5.9771E-004  
  638.50  5.8501E-004  
  639.00  5.6803E-004  
  639.50  5.4616E-004  
  640.00  5.2246E-004  
  640.50  5.0340E-004  
  641.00  4.8856E-004  
  641.50  4.7374E-004  
  642.00  4.5468E-004  
  642.50  4.3878E-004  
  643.00  4.2314E-004  
  643.50  4.0987E-004  
  644.00  3.8966E-004  
  644.50  3.7361E-004  
  645.00  3.5739E-004  
  645.50  3.5186E-004  
  646.00  3.4742E-004  
  646.50  3.3900E-004  
  647.00  3.2503E-004  
  647.50  3.0881E-004  
  648.00  2.9390E-004  
  648.50  2.8194E-004  
  649.00  2.7930E-004  
  649.50  2.7221E-004  
  650.00  2.6125E-004  
  650.50  2.4651E-004  
  651.00  2.3890E-004  
  651.50  2.3346E-004  
  652.00  2.2347E-004  
  652.50  2.1086E-004  
  653.00  2.0140E-004  
  653.50  1.8971E-004  
  654.00  1.8125E-004  
  654.50  1.7496E-004  
  655.00  1.6993E-004  
  655.50  1.6779E-004  
  656.00  1.6302E-004  
  656.50  1.5896E-004  
  657.00  1.4598E-004  
  657.50  1.3441E-004  
  658.00  1.2761E-004  
  658.50  1.2473E-004  
  659.00  1.2181E-004  
  659.50  1.1940E-004  
  660.00  1.1384E-004  
  660.50  1.0681E-004  
  661.00  1.0117E-004  
  661.50  1.0204E-004  
  662.00  1.0394E-004  
  662.50  1.0068E-004  
  663.00  9.6662E-005  
  663.50  9.3186E-005  
  664.00  9.7974E-005  
  664.50  9.9863E-005  
  665.00  9.8899E-005  
  665.50  9.1078E-005  
  666.00  8.5886E-005  
  666.50  7.8494E-005  
  667.00  6.7100E-005  
  667.50  6.1315E-005  
  668.00  5.9128E-005  
  668.50  6.7235E-005  
  669.00  7.1275E-005  
  669.50  7.9592E-005  
  670.00  6.9425E-005  
  670.50  5.9274E-005  
  671.00  4.4553E-005  
  671.50  4.6264E-005  
  672.00  5.2213E-005  
  672.50  5.4106E-005  
  673.00  4.6811E-005  
  673.50  4.0179E-005  
  674.00  4.0824E-005  
  674.50  5.0374E-005  
  675.00  5.6819E-005  
  675.50  6.1056E-005  
  676.00  5.6929E-005  
  676.50  4.5242E-005  
  677.00  3.5981E-005  
  677.50  3.3662E-005  
  678.00  3.3304E-005  
  678.50  3.1369E-005  
  679.00  2.9441E-005  
  679.50  3.0834E-005  
  680.00  3.0002E-005  
  680.50  2.0266E-005  
