
# From lspdd.org
# 
# Name: DEL Sylvania PAR38 Domestique
# Indice spectral Valeur 
# MSI 0.32 
# SLI 0.53 
# IPI 0.74 
# Pourcentage de bleu 18.9 
# Caractéristique Valeur 
# CCT calculée (K) 2991 
# CCT du fabricant (K) 3000 
# Tension (V) 120 
# Puissance (W) 18.0 
# Efficacité lumineuse (Lum/W) 50.0 
#
# Image: '/app/system/img_2s/2583/medium_image2.JPG?1413486488'
# Image: '/app/system/img_1s/2583/medium_image1.JPG?1413486489'
# 

  273.00  0.0000E+000  
  273.50  0.0000E+000  
  274.00  0.0000E+000  
  274.50  0.0000E+000  
  275.00  0.0000E+000  
  275.50  0.0000E+000  
  276.00  0.0000E+000  
  276.50  0.0000E+000  
  277.00  0.0000E+000  
  277.50  0.0000E+000  
  278.00  0.0000E+000  
  278.50  0.0000E+000  
  279.00  0.0000E+000  
  279.50  0.0000E+000  
  280.00  0.0000E+000  
  280.50  0.0000E+000  
  281.00  0.0000E+000  
  281.50  0.0000E+000  
  282.00  0.0000E+000  
  282.50  0.0000E+000  
  283.00  0.0000E+000  
  283.50  0.0000E+000  
  284.00  0.0000E+000  
  284.50  0.0000E+000  
  285.00  0.0000E+000  
  285.50  0.0000E+000  
  286.00  0.0000E+000  
  286.50  0.0000E+000  
  287.00  0.0000E+000  
  287.50  0.0000E+000  
  288.00  0.0000E+000  
  288.50  0.0000E+000  
  289.00  0.0000E+000  
  289.50  0.0000E+000  
  290.00  0.0000E+000  
  290.50  0.0000E+000  
  291.00  0.0000E+000  
  291.50  0.0000E+000  
  292.00  0.0000E+000  
  292.50  0.0000E+000  
  293.00  0.0000E+000  
  293.50  0.0000E+000  
  294.00  0.0000E+000  
  294.50  0.0000E+000  
  295.00  0.0000E+000  
  295.50  0.0000E+000  
  296.00  0.0000E+000  
  296.50  0.0000E+000  
  297.00  0.0000E+000  
  297.50  0.0000E+000  
  298.00  0.0000E+000  
  298.50  0.0000E+000  
  299.00  0.0000E+000  
  299.50  0.0000E+000  
  300.00  1.0135E-004  
  300.50  2.7669E-004  
  301.00  2.5828E-004  
  301.50  2.9041E-004  
  302.00  3.5005E-004  
  302.50  3.5298E-004  
  303.00  3.6473E-004  
  303.50  3.1468E-004  
  304.00  2.8780E-004  
  304.50  3.0713E-004  
  305.00  3.1224E-004  
  305.50  3.3033E-004  
  306.00  3.5146E-004  
  306.50  3.7031E-004  
  307.00  3.5421E-004  
  307.50  3.5145E-004  
  308.00  3.2863E-004  
  308.50  3.4004E-004  
  309.00  4.1859E-004  
  309.50  4.4378E-004  
  310.00  4.6430E-004  
  310.50  4.7799E-004  
  311.00  4.1940E-004  
  311.50  4.0763E-004  
  312.00  3.7877E-004  
  312.50  3.8941E-004  
  313.00  4.6209E-004  
  313.50  4.8034E-004  
  314.00  4.7515E-004  
  314.50  3.9973E-004  
  315.00  3.6686E-004  
  315.50  3.4047E-004  
  316.00  3.4766E-004  
  316.50  3.7753E-004  
  317.00  3.7983E-004  
  317.50  4.4221E-004  
  318.00  4.3334E-004  
  318.50  3.8391E-004  
  319.00  3.6610E-004  
  319.50  3.4970E-004  
  320.00  3.7757E-004  
  320.50  4.3199E-004  
  321.00  4.8632E-004  
  321.50  5.0398E-004  
  322.00  4.5772E-004  
  322.50  4.7625E-004  
  323.00  4.7352E-004  
  323.50  4.6867E-004  
  324.00  4.6667E-004  
  324.50  4.5773E-004  
  325.00  4.4547E-004  
  325.50  4.5602E-004  
  326.00  4.6226E-004  
  326.50  4.0574E-004  
  327.00  3.6602E-004  
  327.50  3.2899E-004  
  328.00  3.2571E-004  
  328.50  3.4506E-004  
  329.00  3.4100E-004  
  329.50  3.4130E-004  
  330.00  3.1904E-004  
  330.50  3.1237E-004  
  331.00  3.4376E-004  
  331.50  3.5495E-004  
  332.00  3.7964E-004  
  332.50  4.1777E-004  
  333.00  4.2569E-004  
  333.50  4.2913E-004  
  334.00  4.1660E-004  
  334.50  3.8714E-004  
  335.00  3.9865E-004  
  335.50  4.2034E-004  
  336.00  4.0896E-004  
  336.50  3.7533E-004  
  337.00  3.4129E-004  
  337.50  3.6711E-004  
  338.00  4.2919E-004  
  338.50  4.6394E-004  
  339.00  4.6777E-004  
  339.50  3.9923E-004  
  340.00  3.2478E-004  
  340.50  3.0692E-004  
  341.00  3.4301E-004  
  341.50  3.9246E-004  
  342.00  4.3618E-004  
  342.50  4.3165E-004  
  343.00  4.2183E-004  
  343.50  4.2193E-004  
  344.00  4.0527E-004  
  344.50  3.5431E-004  
  345.00  3.3564E-004  
  345.50  2.7212E-004  
  346.00  2.6216E-004  
  346.50  3.0818E-004  
  347.00  3.4199E-004  
  347.50  4.5313E-004  
  348.00  5.6407E-004  
  348.50  5.7194E-004  
  349.00  5.5103E-004  
  349.50  5.0598E-004  
  350.00  4.5508E-004  
  350.50  4.4978E-004  
  351.00  4.5709E-004  
  351.50  4.8333E-004  
  352.00  4.9385E-004  
  352.50  5.0389E-004  
  353.00  5.0457E-004  
  353.50  4.6881E-004  
  354.00  5.1813E-004  
  354.50  5.0545E-004  
  355.00  4.8206E-004  
  355.50  4.8497E-004  
  356.00  4.3742E-004  
  356.50  4.3701E-004  
  357.00  4.4914E-004  
  357.50  4.5159E-004  
  358.00  4.9612E-004  
  358.50  5.6168E-004  
  359.00  5.8112E-004  
  359.50  5.4213E-004  
  360.00  4.7039E-004  
  360.50  4.4639E-004  
  361.00  4.6169E-004  
  361.50  5.2093E-004  
  362.00  5.6559E-004  
  362.50  5.5179E-004  
  363.00  5.4609E-004  
  363.50  5.3061E-004  
  364.00  5.4327E-004  
  364.50  5.8478E-004  
  365.00  6.0488E-004  
  365.50  6.0832E-004  
  366.00  5.2676E-004  
  366.50  4.4736E-004  
  367.00  4.2600E-004  
  367.50  4.1309E-004  
  368.00  4.3026E-004  
  368.50  4.5773E-004  
  369.00  4.2550E-004  
  369.50  4.8157E-004  
  370.00  5.0035E-004  
  370.50  5.2515E-004  
  371.00  5.4916E-004  
  371.50  5.3280E-004  
  372.00  5.7762E-004  
  372.50  5.6733E-004  
  373.00  5.4418E-004  
  373.50  5.2432E-004  
  374.00  4.6081E-004  
  374.50  4.9895E-004  
  375.00  5.2762E-004  
  375.50  5.6812E-004  
  376.00  5.8083E-004  
  376.50  5.8490E-004  
  377.00  5.8380E-004  
  377.50  5.8625E-004  
  378.00  5.7080E-004  
  378.50  5.1513E-004  
  379.00  4.6939E-004  
  379.50  4.8906E-004  
  380.00  5.7005E-004  
  380.50  6.0065E-004  
  381.00  6.3786E-004  
  381.50  6.0174E-004  
  382.00  5.6160E-004  
  382.50  5.4600E-004  
  383.00  5.1320E-004  
  383.50  5.4179E-004  
  384.00  5.6086E-004  
  384.50  5.9210E-004  
  385.00  6.4881E-004  
  385.50  6.7938E-004  
  386.00  7.1235E-004  
  386.50  7.4587E-004  
  387.00  6.9007E-004  
  387.50  6.4046E-004  
  388.00  6.1020E-004  
  388.50  6.3371E-004  
  389.00  6.5485E-004  
  389.50  6.9208E-004  
  390.00  7.1062E-004  
  390.50  7.0161E-004  
  391.00  7.1797E-004  
  391.50  7.4245E-004  
  392.00  7.8256E-004  
  392.50  8.0680E-004  
  393.00  8.1417E-004  
  393.50  7.7112E-004  
  394.00  7.1714E-004  
  394.50  6.8733E-004  
  395.00  6.6371E-004  
  395.50  6.6754E-004  
  396.00  6.7635E-004  
  396.50  7.4294E-004  
  397.00  7.6877E-004  
  397.50  7.8640E-004  
  398.00  8.0918E-004  
  398.50  8.1293E-004  
  399.00  8.5973E-004  
  399.50  8.6197E-004  
  400.00  8.3460E-004  
  400.50  7.6492E-004  
  401.00  7.2886E-004  
  401.50  7.4780E-004  
  402.00  8.3831E-004  
  402.50  9.5634E-004  
  403.00  9.8572E-004  
  403.50  9.4956E-004  
  404.00  9.2803E-004  
  404.50  9.4935E-004  
  405.00  1.0075E-003  
  405.50  1.1155E-003  
  406.00  1.1570E-003  
  406.50  1.1533E-003  
  407.00  1.1966E-003  
  407.50  1.1992E-003  
  408.00  1.2458E-003  
  408.50  1.2744E-003  
  409.00  1.3183E-003  
  409.50  1.4159E-003  
  410.00  1.5042E-003  
  410.50  1.5826E-003  
  411.00  1.6612E-003  
  411.50  1.7109E-003  
  412.00  1.7410E-003  
  412.50  1.7904E-003  
  413.00  1.8015E-003  
  413.50  1.8721E-003  
  414.00  1.9914E-003  
  414.50  2.1088E-003  
  415.00  2.2803E-003  
  415.50  2.4616E-003  
  416.00  2.6573E-003  
  416.50  2.8308E-003  
  417.00  3.0004E-003  
  417.50  3.1244E-003  
  418.00  3.2543E-003  
  418.50  3.4000E-003  
  419.00  3.5828E-003  
  419.50  3.8427E-003  
  420.00  4.1158E-003  
  420.50  4.4331E-003  
  421.00  4.7333E-003  
  421.50  4.9691E-003  
  422.00  5.2484E-003  
  422.50  5.5372E-003  
  423.00  5.9158E-003  
  423.50  6.3990E-003  
  424.00  6.8585E-003  
  424.50  7.2805E-003  
  425.00  7.7154E-003  
  425.50  8.1766E-003  
  426.00  8.7554E-003  
  426.50  9.3342E-003  
  427.00  9.9534E-003  
  427.50  1.0545E-002  
  428.00  1.1197E-002  
  428.50  1.1876E-002  
  429.00  1.2609E-002  
  429.50  1.3411E-002  
  430.00  1.4198E-002  
  430.50  1.5056E-002  
  431.00  1.5893E-002  
  431.50  1.6717E-002  
  432.00  1.7652E-002  
  432.50  1.8689E-002  
  433.00  1.9801E-002  
  433.50  2.0964E-002  
  434.00  2.2163E-002  
  434.50  2.3413E-002  
  435.00  2.4791E-002  
  435.50  2.6237E-002  
  436.00  2.7692E-002  
  436.50  2.9153E-002  
  437.00  3.0742E-002  
  437.50  3.2339E-002  
  438.00  3.4072E-002  
  438.50  3.5710E-002  
  439.00  3.7421E-002  
  439.50  3.9347E-002  
  440.00  4.1359E-002  
  440.50  4.3664E-002  
  441.00  4.5820E-002  
  441.50  4.8018E-002  
  442.00  5.0343E-002  
  442.50  5.2745E-002  
  443.00  5.5484E-002  
  443.50  5.8252E-002  
  444.00  6.1171E-002  
  444.50  6.4283E-002  
  445.00  6.7630E-002  
  445.50  7.1091E-002  
  446.00  7.4610E-002  
  446.50  7.8058E-002  
  447.00  8.1455E-002  
  447.50  8.4986E-002  
  448.00  8.8448E-002  
  448.50  9.1807E-002  
  449.00  9.5068E-002  
  449.50  9.8064E-002  
  450.00  1.0088E-001  
  450.50  1.0336E-001  
  451.00  1.0557E-001  
  451.50  1.0725E-001  
  452.00  1.0870E-001  
  452.50  1.0982E-001  
  453.00  1.1023E-001  
  453.50  1.1013E-001  
  454.00  1.0952E-001  
  454.50  1.0863E-001  
  455.00  1.0765E-001  
  455.50  1.0599E-001  
  456.00  1.0396E-001  
  456.50  1.0173E-001  
  457.00  9.9278E-002  
  457.50  9.6609E-002  
  458.00  9.3569E-002  
  458.50  9.0313E-002  
  459.00  8.7084E-002  
  459.50  8.3912E-002  
  460.00  8.0926E-002  
  460.50  7.8297E-002  
  461.00  7.5810E-002  
  461.50  7.3301E-002  
  462.00  7.0845E-002  
  462.50  6.8505E-002  
  463.00  6.6367E-002  
  463.50  6.4355E-002  
  464.00  6.2450E-002  
  464.50  6.0595E-002  
  465.00  5.9028E-002  
  465.50  5.7751E-002  
  466.00  5.6508E-002  
  466.50  5.5311E-002  
  467.00  5.3975E-002  
  467.50  5.2726E-002  
  468.00  5.1605E-002  
  468.50  5.0547E-002  
  469.00  4.9501E-002  
  469.50  4.8387E-002  
  470.00  4.7298E-002  
  470.50  4.6290E-002  
  471.00  4.5233E-002  
  471.50  4.4213E-002  
  472.00  4.3175E-002  
  472.50  4.2215E-002  
  473.00  4.1358E-002  
  473.50  4.0512E-002  
  474.00  3.9531E-002  
  474.50  3.8485E-002  
  475.00  3.7395E-002  
  475.50  3.6470E-002  
  476.00  3.5656E-002  
  476.50  3.4983E-002  
  477.00  3.4283E-002  
  477.50  3.3555E-002  
  478.00  3.2833E-002  
  478.50  3.2293E-002  
  479.00  3.1958E-002  
  479.50  3.1677E-002  
  480.00  3.1372E-002  
  480.50  3.1029E-002  
  481.00  3.0759E-002  
  481.50  3.0540E-002  
  482.00  3.0377E-002  
  482.50  3.0210E-002  
  483.00  3.0072E-002  
  483.50  3.0033E-002  
  484.00  3.0078E-002  
  484.50  3.0175E-002  
  485.00  3.0292E-002  
  485.50  3.0427E-002  
  486.00  3.0605E-002  
  486.50  3.0871E-002  
  487.00  3.1133E-002  
  487.50  3.1349E-002  
  488.00  3.1546E-002  
  488.50  3.1780E-002  
  489.00  3.2113E-002  
  489.50  3.2528E-002  
  490.00  3.2926E-002  
  490.50  3.3335E-002  
  491.00  3.3836E-002  
  491.50  3.4359E-002  
  492.00  3.4924E-002  
  492.50  3.5473E-002  
  493.00  3.6078E-002  
  493.50  3.6761E-002  
  494.00  3.7513E-002  
  494.50  3.8277E-002  
  495.00  3.9034E-002  
  495.50  3.9835E-002  
  496.00  4.0613E-002  
  496.50  4.1493E-002  
  497.00  4.2375E-002  
  497.50  4.3359E-002  
  498.00  4.4325E-002  
  498.50  4.5267E-002  
  499.00  4.6239E-002  
  499.50  4.7274E-002  
  500.00  4.8385E-002  
  500.50  4.9498E-002  
  501.00  5.0630E-002  
  501.50  5.1754E-002  
  502.00  5.2952E-002  
  502.50  5.4138E-002  
  503.00  5.5326E-002  
  503.50  5.6604E-002  
  504.00  5.7974E-002  
  504.50  5.9352E-002  
  505.00  6.0663E-002  
  505.50  6.1894E-002  
  506.00  6.3147E-002  
  506.50  6.4393E-002  
  507.00  6.5703E-002  
  507.50  6.7039E-002  
  508.00  6.8452E-002  
  508.50  6.9825E-002  
  509.00  7.1133E-002  
  509.50  7.2394E-002  
  510.00  7.3695E-002  
  510.50  7.5015E-002  
  511.00  7.6417E-002  
  511.50  7.7764E-002  
  512.00  7.9073E-002  
  512.50  8.0284E-002  
  513.00  8.1596E-002  
  513.50  8.3023E-002  
  514.00  8.4407E-002  
  514.50  8.5721E-002  
  515.00  8.6885E-002  
  515.50  8.8059E-002  
  516.00  8.9320E-002  
  516.50  9.0638E-002  
  517.00  9.2017E-002  
  517.50  9.3343E-002  
  518.00  9.4545E-002  
  518.50  9.5737E-002  
  519.00  9.6816E-002  
  519.50  9.7845E-002  
  520.00  9.8893E-002  
  520.50  9.9932E-002  
  521.00  1.0099E-001  
  521.50  1.0203E-001  
  522.00  1.0313E-001  
  522.50  1.0432E-001  
  523.00  1.0541E-001  
  523.50  1.0633E-001  
  524.00  1.0719E-001  
  524.50  1.0802E-001  
  525.00  1.0886E-001  
  525.50  1.0972E-001  
  526.00  1.1057E-001  
  526.50  1.1152E-001  
  527.00  1.1239E-001  
  527.50  1.1315E-001  
  528.00  1.1386E-001  
  528.50  1.1457E-001  
  529.00  1.1532E-001  
  529.50  1.1606E-001  
  530.00  1.1680E-001  
  530.50  1.1754E-001  
  531.00  1.1833E-001  
  531.50  1.1900E-001  
  532.00  1.1969E-001  
  532.50  1.2039E-001  
  533.00  1.2106E-001  
  533.50  1.2170E-001  
  534.00  1.2220E-001  
  534.50  1.2273E-001  
  535.00  1.2329E-001  
  535.50  1.2384E-001  
  536.00  1.2439E-001  
  536.50  1.2490E-001  
  537.00  1.2550E-001  
  537.50  1.2611E-001  
  538.00  1.2671E-001  
  538.50  1.2723E-001  
  539.00  1.2767E-001  
  539.50  1.2812E-001  
  540.00  1.2863E-001  
  540.50  1.2924E-001  
  541.00  1.2976E-001  
  541.50  1.3031E-001  
  542.00  1.3081E-001  
  542.50  1.3139E-001  
  543.00  1.3198E-001  
  543.50  1.3247E-001  
  544.00  1.3293E-001  
  544.50  1.3335E-001  
  545.00  1.3380E-001  
  545.50  1.3426E-001  
  546.00  1.3472E-001  
  546.50  1.3520E-001  
  547.00  1.3573E-001  
  547.50  1.3625E-001  
  548.00  1.3676E-001  
  548.50  1.3728E-001  
  549.00  1.3768E-001  
  549.50  1.3809E-001  
  550.00  1.3846E-001  
  550.50  1.3891E-001  
  551.00  1.3939E-001  
  551.50  1.3987E-001  
  552.00  1.4036E-001  
  552.50  1.4081E-001  
  553.00  1.4127E-001  
  553.50  1.4169E-001  
  554.00  1.4217E-001  
  554.50  1.4260E-001  
  555.00  1.4301E-001  
  555.50  1.4345E-001  
  556.00  1.4392E-001  
  556.50  1.4442E-001  
  557.00  1.4492E-001  
  557.50  1.4542E-001  
  558.00  1.4596E-001  
  558.50  1.4641E-001  
  559.00  1.4686E-001  
  559.50  1.4731E-001  
  560.00  1.4778E-001  
  560.50  1.4816E-001  
  561.00  1.4849E-001  
  561.50  1.4877E-001  
  562.00  1.4925E-001  
  562.50  1.4966E-001  
  563.00  1.5009E-001  
  563.50  1.5046E-001  
  564.00  1.5084E-001  
  564.50  1.5123E-001  
  565.00  1.5162E-001  
  565.50  1.5206E-001  
  566.00  1.5249E-001  
  566.50  1.5287E-001  
  567.00  1.5314E-001  
  567.50  1.5345E-001  
  568.00  1.5389E-001  
  568.50  1.5440E-001  
  569.00  1.5487E-001  
  569.50  1.5520E-001  
  570.00  1.5556E-001  
  570.50  1.5592E-001  
  571.00  1.5630E-001  
  571.50  1.5671E-001  
  572.00  1.5712E-001  
  572.50  1.5755E-001  
  573.00  1.5792E-001  
  573.50  1.5822E-001  
  574.00  1.5856E-001  
  574.50  1.5894E-001  
  575.00  1.5942E-001  
  575.50  1.5997E-001  
  576.00  1.6050E-001  
  576.50  1.6096E-001  
  577.00  1.6138E-001  
  577.50  1.6175E-001  
  578.00  1.6217E-001  
  578.50  1.6259E-001  
  579.00  1.6298E-001  
  579.50  1.6339E-001  
  580.00  1.6371E-001  
  580.50  1.6414E-001  
  581.00  1.6449E-001  
  581.50  1.6487E-001  
  582.00  1.6520E-001  
  582.50  1.6552E-001  
  583.00  1.6589E-001  
  583.50  1.6632E-001  
  584.00  1.6673E-001  
  584.50  1.6711E-001  
  585.00  1.6737E-001  
  585.50  1.6773E-001  
  586.00  1.6814E-001  
  586.50  1.6862E-001  
  587.00  1.6902E-001  
  587.50  1.6937E-001  
  588.00  1.6980E-001  
  588.50  1.7025E-001  
  589.00  1.7078E-001  
  589.50  1.7119E-001  
  590.00  1.7166E-001  
  590.50  1.7205E-001  
  591.00  1.7251E-001  
  591.50  1.7291E-001  
  592.00  1.7316E-001  
  592.50  1.7341E-001  
  593.00  1.7374E-001  
  593.50  1.7413E-001  
  594.00  1.7467E-001  
  594.50  1.7513E-001  
  595.00  1.7563E-001  
  595.50  1.7587E-001  
  596.00  1.7611E-001  
  596.50  1.7634E-001  
  597.00  1.7681E-001  
  597.50  1.7732E-001  
  598.00  1.7778E-001  
  598.50  1.7815E-001  
  599.00  1.7849E-001  
  599.50  1.7877E-001  
  600.00  1.7906E-001  
  600.50  1.7943E-001  
  601.00  1.7985E-001  
  601.50  1.8024E-001  
  602.00  1.8052E-001  
  602.50  1.8083E-001  
  603.00  1.8116E-001  
  603.50  1.8152E-001  
  604.00  1.8187E-001  
  604.50  1.8228E-001  
  605.00  1.8264E-001  
  605.50  1.8296E-001  
  606.00  1.8325E-001  
  606.50  1.8363E-001  
  607.00  1.8407E-001  
  607.50  1.8440E-001  
  608.00  1.8471E-001  
  608.50  1.8508E-001  
  609.00  1.8562E-001  
  609.50  1.8610E-001  
  610.00  1.8649E-001  
  610.50  1.8672E-001  
  611.00  1.8696E-001  
  611.50  1.8716E-001  
  612.00  1.8738E-001  
  612.50  1.8762E-001  
  613.00  1.8794E-001  
  613.50  1.8829E-001  
  614.00  1.8873E-001  
  614.50  1.8915E-001  
  615.00  1.8965E-001  
  615.50  1.8999E-001  
  616.00  1.9020E-001  
  616.50  1.9028E-001  
  617.00  1.9038E-001  
  617.50  1.9051E-001  
  618.00  1.9076E-001  
  618.50  1.9089E-001  
  619.00  1.9106E-001  
  619.50  1.9106E-001  
  620.00  1.9124E-001  
  620.50  1.9153E-001  
  621.00  1.9193E-001  
  621.50  1.9229E-001  
  622.00  1.9259E-001  
  622.50  1.9272E-001  
  623.00  1.9275E-001  
  623.50  1.9271E-001  
  624.00  1.9287E-001  
  624.50  1.9311E-001  
  625.00  1.9324E-001  
  625.50  1.9327E-001  
  626.00  1.9320E-001  
  626.50  1.9323E-001  
  627.00  1.9332E-001  
  627.50  1.9339E-001  
  628.00  1.9348E-001  
  628.50  1.9326E-001  
  629.00  1.9319E-001  
  629.50  1.9316E-001  
  630.00  1.9339E-001  
  630.50  1.9354E-001  
  631.00  1.9342E-001  
  631.50  1.9321E-001  
  632.00  1.9278E-001  
  632.50  1.9254E-001  
  633.00  1.9239E-001  
  633.50  1.9229E-001  
  634.00  1.9224E-001  
  634.50  1.9209E-001  
  635.00  1.9195E-001  
  635.50  1.9162E-001  
  636.00  1.9120E-001  
  636.50  1.9070E-001  
  637.00  1.9046E-001  
  637.50  1.9025E-001  
  638.00  1.9019E-001  
  638.50  1.8989E-001  
  639.00  1.8953E-001  
  639.50  1.8907E-001  
  640.00  1.8861E-001  
  640.50  1.8809E-001  
  641.00  1.8750E-001  
  641.50  1.8695E-001  
  642.00  1.8646E-001  
  642.50  1.8602E-001  
  643.00  1.8532E-001  
  643.50  1.8462E-001  
  644.00  1.8403E-001  
  644.50  1.8349E-001  
  645.00  1.8291E-001  
  645.50  1.8224E-001  
  646.00  1.8147E-001  
  646.50  1.8046E-001  
  647.00  1.7964E-001  
  647.50  1.7888E-001  
  648.00  1.7828E-001  
  648.50  1.7754E-001  
  649.00  1.7684E-001  
  649.50  1.7612E-001  
  650.00  1.7523E-001  
  650.50  1.7404E-001  
  651.00  1.7272E-001  
  651.50  1.7142E-001  
  652.00  1.7040E-001  
  652.50  1.6972E-001  
  653.00  1.6895E-001  
  653.50  1.6818E-001  
  654.00  1.6721E-001  
  654.50  1.6613E-001  
  655.00  1.6509E-001  
  655.50  1.6410E-001  
  656.00  1.6326E-001  
  656.50  1.6216E-001  
  657.00  1.6091E-001  
  657.50  1.5972E-001  
  658.00  1.5855E-001  
  658.50  1.5745E-001  
  659.00  1.5633E-001  
  659.50  1.5543E-001  
  660.00  1.5449E-001  
  660.50  1.5339E-001  
  661.00  1.5212E-001  
  661.50  1.5088E-001  
  662.00  1.4943E-001  
  662.50  1.4820E-001  
  663.00  1.4715E-001  
  663.50  1.4612E-001  
  664.00  1.4474E-001  
  664.50  1.4331E-001  
  665.00  1.4209E-001  
  665.50  1.4090E-001  
  666.00  1.3961E-001  
  666.50  1.3852E-001  
  667.00  1.3746E-001  
  667.50  1.3643E-001  
  668.00  1.3523E-001  
  668.50  1.3419E-001  
  669.00  1.3291E-001  
  669.50  1.3170E-001  
  670.00  1.3041E-001  
  670.50  1.2909E-001  
  671.00  1.2761E-001  
  671.50  1.2615E-001  
  672.00  1.2487E-001  
  672.50  1.2368E-001  
  673.00  1.2261E-001  
  673.50  1.2151E-001  
  674.00  1.2030E-001  
  674.50  1.1916E-001  
  675.00  1.1803E-001  
  675.50  1.1678E-001  
  676.00  1.1523E-001  
  676.50  1.1394E-001  
  677.00  1.1293E-001  
  677.50  1.1212E-001  
  678.00  1.1095E-001  
  678.50  1.0972E-001  
  679.00  1.0849E-001  
  679.50  1.0745E-001  
