
# From lspdd.org
# 
# Name: INC GE Candle-Crystalclear Domestique
# Indice spectral Valeur 
# MSI 0.27 
# SLI 0.49 
# IPI 0.95 
# Pourcentage de bleu 11.7 
# Caractéristique Valeur 
# CCT calculée (K) 2570 
# CCT du fabricant (K) 2574 
# Tension (V) 120 
# Puissance (W) 60.0 
# Efficacité lumineuse (Lum/W) ND 
#
# Image: '/app/system/img_1s/2585/medium_image1.JPG?1413486500'
# 

  273.00  0.0000E+000  
  273.50  0.0000E+000  
  274.00  0.0000E+000  
  274.50  0.0000E+000  
  275.00  0.0000E+000  
  275.50  0.0000E+000  
  276.00  0.0000E+000  
  276.50  0.0000E+000  
  277.00  0.0000E+000  
  277.50  0.0000E+000  
  278.00  0.0000E+000  
  278.50  0.0000E+000  
  279.00  0.0000E+000  
  279.50  0.0000E+000  
  280.00  0.0000E+000  
  280.50  0.0000E+000  
  281.00  0.0000E+000  
  281.50  0.0000E+000  
  282.00  0.0000E+000  
  282.50  0.0000E+000  
  283.00  0.0000E+000  
  283.50  0.0000E+000  
  284.00  0.0000E+000  
  284.50  0.0000E+000  
  285.00  0.0000E+000  
  285.50  0.0000E+000  
  286.00  0.0000E+000  
  286.50  0.0000E+000  
  287.00  0.0000E+000  
  287.50  0.0000E+000  
  288.00  0.0000E+000  
  288.50  0.0000E+000  
  289.00  0.0000E+000  
  289.50  0.0000E+000  
  290.00  0.0000E+000  
  290.50  0.0000E+000  
  291.00  0.0000E+000  
  291.50  0.0000E+000  
  292.00  0.0000E+000  
  292.50  0.0000E+000  
  293.00  0.0000E+000  
  293.50  0.0000E+000  
  294.00  0.0000E+000  
  294.50  0.0000E+000  
  295.00  0.0000E+000  
  295.50  0.0000E+000  
  296.00  0.0000E+000  
  296.50  0.0000E+000  
  297.00  0.0000E+000  
  297.50  0.0000E+000  
  298.00  0.0000E+000  
  298.50  0.0000E+000  
  299.00  0.0000E+000  
  299.50  0.0000E+000  
  300.00  8.2389E-005  
  300.50  1.9606E-004  
  301.00  1.2092E-004  
  301.50  4.8434E-005  
  302.00  2.8169E-005  
  302.50  7.4902E-005  
  303.00  1.1081E-004  
  303.50  1.5763E-004  
  304.00  1.9699E-004  
  304.50  1.7375E-004  
  305.00  1.3514E-004  
  305.50  9.3453E-005  
  306.00  5.0848E-005  
  306.50  2.6476E-005  
  307.00  5.1622E-005  
  307.50  1.0322E-004  
  308.00  1.1509E-004  
  308.50  1.7477E-004  
  309.00  2.0405E-004  
  309.50  1.9882E-004  
  310.00  1.7541E-004  
  310.50  1.1323E-004  
  311.00  8.7109E-005  
  311.50  3.7330E-005  
  312.00  4.5650E-006  
  312.50  1.4751E-005  
  313.00  2.3685E-005  
  313.50  9.5131E-005  
  314.00  1.4971E-004  
  314.50  1.6681E-004  
  315.00  1.4245E-004  
  315.50  9.0376E-005  
  316.00  5.8406E-005  
  316.50  7.4890E-005  
  317.00  1.2699E-004  
  317.50  1.4758E-004  
  318.00  1.4298E-004  
  318.50  9.0670E-005  
  319.00  6.6554E-005  
  319.50  8.7187E-005  
  320.00  1.5576E-004  
  320.50  2.1268E-004  
  321.00  2.5452E-004  
  321.50  2.7731E-004  
  322.00  2.4927E-004  
  322.50  2.2725E-004  
  323.00  1.9983E-004  
  323.50  1.8050E-004  
  324.00  2.3568E-004  
  324.50  3.2494E-004  
  325.00  3.6025E-004  
  325.50  3.9074E-004  
  326.00  3.2062E-004  
  326.50  2.5123E-004  
  327.00  2.2639E-004  
  327.50  2.3218E-004  
  328.00  2.2948E-004  
  328.50  2.5958E-004  
  329.00  2.8568E-004  
  329.50  2.9216E-004  
  330.00  2.9853E-004  
  330.50  3.2182E-004  
  331.00  3.8903E-004  
  331.50  4.6393E-004  
  332.00  4.9609E-004  
  332.50  4.4839E-004  
  333.00  3.6186E-004  
  333.50  3.4166E-004  
  334.00  3.6575E-004  
  334.50  4.0982E-004  
  335.00  4.3635E-004  
  335.50  4.5775E-004  
  336.00  4.6491E-004  
  336.50  4.3539E-004  
  337.00  4.0843E-004  
  337.50  4.3069E-004  
  338.00  5.1527E-004  
  338.50  6.1443E-004  
  339.00  7.0518E-004  
  339.50  6.9679E-004  
  340.00  7.1466E-004  
  340.50  6.9579E-004  
  341.00  6.5505E-004  
  341.50  6.0139E-004  
  342.00  5.0681E-004  
  342.50  4.8390E-004  
  343.00  4.7977E-004  
  343.50  5.2804E-004  
  344.00  5.7375E-004  
  344.50  5.8963E-004  
  345.00  6.3981E-004  
  345.50  6.5138E-004  
  346.00  7.2160E-004  
  346.50  7.6974E-004  
  347.00  7.3480E-004  
  347.50  6.5961E-004  
  348.00  6.0413E-004  
  348.50  5.8900E-004  
  349.00  6.2429E-004  
  349.50  6.8457E-004  
  350.00  7.1638E-004  
  350.50  7.0219E-004  
  351.00  7.1753E-004  
  351.50  7.3427E-004  
  352.00  7.7767E-004  
  352.50  8.3693E-004  
  353.00  8.7835E-004  
  353.50  8.8579E-004  
  354.00  8.7591E-004  
  354.50  8.2697E-004  
  355.00  8.0288E-004  
  355.50  8.1103E-004  
  356.00  8.3960E-004  
  356.50  8.5785E-004  
  357.00  8.4805E-004  
  357.50  8.5076E-004  
  358.00  8.4337E-004  
  358.50  9.0056E-004  
  359.00  9.0953E-004  
  359.50  9.3816E-004  
  360.00  9.7177E-004  
  360.50  9.4158E-004  
  361.00  9.4814E-004  
  361.50  9.1525E-004  
  362.00  8.9370E-004  
  362.50  9.0743E-004  
  363.00  1.0119E-003  
  363.50  1.1377E-003  
  364.00  1.2590E-003  
  364.50  1.2978E-003  
  365.00  1.2451E-003  
  365.50  1.2153E-003  
  366.00  1.1933E-003  
  366.50  1.1708E-003  
  367.00  1.1667E-003  
  367.50  1.1480E-003  
  368.00  1.2033E-003  
  368.50  1.2889E-003  
  369.00  1.3587E-003  
  369.50  1.4127E-003  
  370.00  1.4045E-003  
  370.50  1.3955E-003  
  371.00  1.3969E-003  
  371.50  1.3933E-003  
  372.00  1.4383E-003  
  372.50  1.4388E-003  
  373.00  1.4362E-003  
  373.50  1.4461E-003  
  374.00  1.4494E-003  
  374.50  1.4726E-003  
  375.00  1.5114E-003  
  375.50  1.5370E-003  
  376.00  1.5599E-003  
  376.50  1.5596E-003  
  377.00  1.5991E-003  
  377.50  1.6073E-003  
  378.00  1.6403E-003  
  378.50  1.6355E-003  
  379.00  1.6271E-003  
  379.50  1.6332E-003  
  380.00  1.6691E-003  
  380.50  1.6870E-003  
  381.00  1.6782E-003  
  381.50  1.7015E-003  
  382.00  1.6987E-003  
  382.50  1.7691E-003  
  383.00  1.8271E-003  
  383.50  1.8649E-003  
  384.00  1.9425E-003  
  384.50  1.9847E-003  
  385.00  1.9992E-003  
  385.50  2.0119E-003  
  386.00  2.0362E-003  
  386.50  2.0462E-003  
  387.00  2.1343E-003  
  387.50  2.1929E-003  
  388.00  2.1764E-003  
  388.50  2.1561E-003  
  389.00  2.1436E-003  
  389.50  2.1434E-003  
  390.00  2.2317E-003  
  390.50  2.3255E-003  
  391.00  2.4214E-003  
  391.50  2.4684E-003  
  392.00  2.4979E-003  
  392.50  2.4597E-003  
  393.00  2.4913E-003  
  393.50  2.5100E-003  
  394.00  2.5116E-003  
  394.50  2.5325E-003  
  395.00  2.5220E-003  
  395.50  2.5547E-003  
  396.00  2.5968E-003  
  396.50  2.6267E-003  
  397.00  2.6193E-003  
  397.50  2.5905E-003  
  398.00  2.5674E-003  
  398.50  2.6080E-003  
  399.00  2.7587E-003  
  399.50  2.9019E-003  
  400.00  2.9448E-003  
  400.50  2.9111E-003  
  401.00  2.8566E-003  
  401.50  2.8734E-003  
  402.00  2.8661E-003  
  402.50  2.8335E-003  
  403.00  2.8496E-003  
  403.50  2.9087E-003  
  404.00  2.9777E-003  
  404.50  3.0039E-003  
  405.00  3.0178E-003  
  405.50  3.0708E-003  
  406.00  3.1878E-003  
  406.50  3.2664E-003  
  407.00  3.3357E-003  
  407.50  3.3876E-003  
  408.00  3.4171E-003  
  408.50  3.4674E-003  
  409.00  3.4950E-003  
  409.50  3.5138E-003  
  410.00  3.5548E-003  
  410.50  3.6042E-003  
  411.00  3.6507E-003  
  411.50  3.6693E-003  
  412.00  3.6761E-003  
  412.50  3.6691E-003  
  413.00  3.7449E-003  
  413.50  3.8410E-003  
  414.00  3.9363E-003  
  414.50  3.9778E-003  
  415.00  3.9774E-003  
  415.50  3.9451E-003  
  416.00  3.9530E-003  
  416.50  3.9471E-003  
  417.00  3.9898E-003  
  417.50  4.0556E-003  
  418.00  4.0658E-003  
  418.50  4.1592E-003  
  419.00  4.1822E-003  
  419.50  4.2045E-003  
  420.00  4.2907E-003  
  420.50  4.3234E-003  
  421.00  4.3471E-003  
  421.50  4.3511E-003  
  422.00  4.3307E-003  
  422.50  4.3909E-003  
  423.00  4.5034E-003  
  423.50  4.6512E-003  
  424.00  4.7520E-003  
  424.50  4.7854E-003  
  425.00  4.8202E-003  
  425.50  4.8265E-003  
  426.00  4.8950E-003  
  426.50  4.9278E-003  
  427.00  4.9446E-003  
  427.50  4.9716E-003  
  428.00  5.0399E-003  
  428.50  5.0521E-003  
  429.00  5.0532E-003  
  429.50  5.1091E-003  
  430.00  5.2159E-003  
  430.50  5.3468E-003  
  431.00  5.4282E-003  
  431.50  5.4579E-003  
  432.00  5.4778E-003  
  432.50  5.5346E-003  
  433.00  5.5515E-003  
  433.50  5.5670E-003  
  434.00  5.5940E-003  
  434.50  5.6194E-003  
  435.00  5.6711E-003  
  435.50  5.7222E-003  
  436.00  5.7656E-003  
  436.50  5.8092E-003  
  437.00  5.8416E-003  
  437.50  5.9071E-003  
  438.00  5.9959E-003  
  438.50  6.0595E-003  
  439.00  6.1326E-003  
  439.50  6.2213E-003  
  440.00  6.2813E-003  
  440.50  6.3381E-003  
  441.00  6.3451E-003  
  441.50  6.3328E-003  
  442.00  6.4336E-003  
  442.50  6.5125E-003  
  443.00  6.5918E-003  
  443.50  6.5932E-003  
  444.00  6.6403E-003  
  444.50  6.7453E-003  
  445.00  6.8520E-003  
  445.50  6.9161E-003  
  446.00  6.8737E-003  
  446.50  6.8635E-003  
  447.00  6.9023E-003  
  447.50  6.9474E-003  
  448.00  7.0631E-003  
  448.50  7.1421E-003  
  449.00  7.2454E-003  
  449.50  7.3546E-003  
  450.00  7.3907E-003  
  450.50  7.4447E-003  
  451.00  7.5005E-003  
  451.50  7.5529E-003  
  452.00  7.6136E-003  
  452.50  7.7015E-003  
  453.00  7.7759E-003  
  453.50  7.9081E-003  
  454.00  7.9594E-003  
  454.50  7.9987E-003  
  455.00  8.0127E-003  
  455.50  8.0073E-003  
  456.00  8.0488E-003  
  456.50  8.0965E-003  
  457.00  8.2032E-003  
  457.50  8.3420E-003  
  458.00  8.3932E-003  
  458.50  8.4324E-003  
  459.00  8.4283E-003  
  459.50  8.4503E-003  
  460.00  8.5533E-003  
  460.50  8.5937E-003  
  461.00  8.6508E-003  
  461.50  8.7064E-003  
  462.00  8.7723E-003  
  462.50  8.8771E-003  
  463.00  9.0064E-003  
  463.50  9.1623E-003  
  464.00  9.2768E-003  
  464.50  9.3342E-003  
  465.00  9.3725E-003  
  465.50  9.4016E-003  
  466.00  9.5028E-003  
  466.50  9.5815E-003  
  467.00  9.6261E-003  
  467.50  9.6786E-003  
  468.00  9.6810E-003  
  468.50  9.7774E-003  
  469.00  9.8653E-003  
  469.50  9.9140E-003  
  470.00  1.0041E-002  
  470.50  1.0121E-002  
  471.00  1.0212E-002  
  471.50  1.0285E-002  
  472.00  1.0302E-002  
  472.50  1.0383E-002  
  473.00  1.0488E-002  
  473.50  1.0613E-002  
  474.00  1.0729E-002  
  474.50  1.0811E-002  
  475.00  1.0833E-002  
  475.50  1.0902E-002  
  476.00  1.0969E-002  
  476.50  1.1111E-002  
  477.00  1.1181E-002  
  477.50  1.1246E-002  
  478.00  1.1270E-002  
  478.50  1.1365E-002  
  479.00  1.1427E-002  
  479.50  1.1509E-002  
  480.00  1.1598E-002  
  480.50  1.1655E-002  
  481.00  1.1731E-002  
  481.50  1.1733E-002  
  482.00  1.1767E-002  
  482.50  1.1814E-002  
  483.00  1.1913E-002  
  483.50  1.2064E-002  
  484.00  1.2197E-002  
  484.50  1.2312E-002  
  485.00  1.2367E-002  
  485.50  1.2430E-002  
  486.00  1.2526E-002  
  486.50  1.2592E-002  
  487.00  1.2693E-002  
  487.50  1.2781E-002  
  488.00  1.2882E-002  
  488.50  1.2995E-002  
  489.00  1.3072E-002  
  489.50  1.3129E-002  
  490.00  1.3198E-002  
  490.50  1.3259E-002  
  491.00  1.3381E-002  
  491.50  1.3450E-002  
  492.00  1.3578E-002  
  492.50  1.3689E-002  
  493.00  1.3849E-002  
  493.50  1.3962E-002  
  494.00  1.4019E-002  
  494.50  1.4084E-002  
  495.00  1.4162E-002  
  495.50  1.4302E-002  
  496.00  1.4421E-002  
  496.50  1.4512E-002  
  497.00  1.4597E-002  
  497.50  1.4699E-002  
  498.00  1.4792E-002  
  498.50  1.4926E-002  
  499.00  1.5044E-002  
  499.50  1.5191E-002  
  500.00  1.5345E-002  
  500.50  1.5468E-002  
  501.00  1.5564E-002  
  501.50  1.5640E-002  
  502.00  1.5713E-002  
  502.50  1.5805E-002  
  503.00  1.5859E-002  
  503.50  1.5922E-002  
  504.00  1.6074E-002  
  504.50  1.6264E-002  
  505.00  1.6512E-002  
  505.50  1.6675E-002  
  506.00  1.6789E-002  
  506.50  1.6877E-002  
  507.00  1.6987E-002  
  507.50  1.7119E-002  
  508.00  1.7273E-002  
  508.50  1.7432E-002  
  509.00  1.7562E-002  
  509.50  1.7703E-002  
  510.00  1.7849E-002  
  510.50  1.7958E-002  
  511.00  1.8115E-002  
  511.50  1.8256E-002  
  512.00  1.8404E-002  
  512.50  1.8576E-002  
  513.00  1.8713E-002  
  513.50  1.8887E-002  
  514.00  1.9060E-002  
  514.50  1.9236E-002  
  515.00  1.9405E-002  
  515.50  1.9531E-002  
  516.00  1.9627E-002  
  516.50  1.9689E-002  
  517.00  1.9800E-002  
  517.50  1.9993E-002  
  518.00  2.0219E-002  
  518.50  2.0431E-002  
  519.00  2.0608E-002  
  519.50  2.0729E-002  
  520.00  2.0883E-002  
  520.50  2.1046E-002  
  521.00  2.1208E-002  
  521.50  2.1362E-002  
  522.00  2.1472E-002  
  522.50  2.1606E-002  
  523.00  2.1781E-002  
  523.50  2.1983E-002  
  524.00  2.2193E-002  
  524.50  2.2375E-002  
  525.00  2.2524E-002  
  525.50  2.2628E-002  
  526.00  2.2750E-002  
  526.50  2.2959E-002  
  527.00  2.3204E-002  
  527.50  2.3406E-002  
  528.00  2.3551E-002  
  528.50  2.3618E-002  
  529.00  2.3715E-002  
  529.50  2.3811E-002  
  530.00  2.3930E-002  
  530.50  2.4105E-002  
  531.00  2.4315E-002  
  531.50  2.4533E-002  
  532.00  2.4759E-002  
  532.50  2.4966E-002  
  533.00  2.5117E-002  
  533.50  2.5201E-002  
  534.00  2.5291E-002  
  534.50  2.5445E-002  
  535.00  2.5692E-002  
  535.50  2.5936E-002  
  536.00  2.6117E-002  
  536.50  2.6295E-002  
  537.00  2.6435E-002  
  537.50  2.6606E-002  
  538.00  2.6762E-002  
  538.50  2.6918E-002  
  539.00  2.7071E-002  
  539.50  2.7244E-002  
  540.00  2.7393E-002  
  540.50  2.7581E-002  
  541.00  2.7751E-002  
  541.50  2.7968E-002  
  542.00  2.8167E-002  
  542.50  2.8293E-002  
  543.00  2.8387E-002  
  543.50  2.8539E-002  
  544.00  2.8709E-002  
  544.50  2.8933E-002  
  545.00  2.9113E-002  
  545.50  2.9341E-002  
  546.00  2.9579E-002  
  546.50  2.9736E-002  
  547.00  2.9872E-002  
  547.50  3.0012E-002  
  548.00  3.0200E-002  
  548.50  3.0380E-002  
  549.00  3.0593E-002  
  549.50  3.0808E-002  
  550.00  3.1039E-002  
  550.50  3.1263E-002  
  551.00  3.1438E-002  
  551.50  3.1559E-002  
  552.00  3.1627E-002  
  552.50  3.1770E-002  
  553.00  3.1998E-002  
  553.50  3.2301E-002  
  554.00  3.2536E-002  
  554.50  3.2708E-002  
  555.00  3.2750E-002  
  555.50  3.2830E-002  
  556.00  3.2943E-002  
  556.50  3.3110E-002  
  557.00  3.3348E-002  
  557.50  3.3537E-002  
  558.00  3.3750E-002  
  558.50  3.3902E-002  
  559.00  3.4102E-002  
  559.50  3.4323E-002  
  560.00  3.4545E-002  
  560.50  3.4636E-002  
  561.00  3.4769E-002  
  561.50  3.4951E-002  
  562.00  3.5202E-002  
  562.50  3.5442E-002  
  563.00  3.5549E-002  
  563.50  3.5691E-002  
  564.00  3.5805E-002  
  564.50  3.5944E-002  
  565.00  3.6124E-002  
  565.50  3.6318E-002  
  566.00  3.6531E-002  
  566.50  3.6729E-002  
  567.00  3.6899E-002  
  567.50  3.7050E-002  
  568.00  3.7209E-002  
  568.50  3.7298E-002  
  569.00  3.7367E-002  
  569.50  3.7452E-002  
  570.00  3.7653E-002  
  570.50  3.7856E-002  
  571.00  3.8113E-002  
  571.50  3.8263E-002  
  572.00  3.8365E-002  
  572.50  3.8440E-002  
  573.00  3.8517E-002  
  573.50  3.8707E-002  
  574.00  3.8875E-002  
  574.50  3.9069E-002  
  575.00  3.9257E-002  
  575.50  3.9532E-002  
  576.00  3.9796E-002  
  576.50  3.9894E-002  
  577.00  3.9960E-002  
  577.50  3.9981E-002  
  578.00  4.0126E-002  
  578.50  4.0337E-002  
  579.00  4.0581E-002  
  579.50  4.0740E-002  
  580.00  4.0835E-002  
  580.50  4.0918E-002  
  581.00  4.1061E-002  
  581.50  4.1164E-002  
  582.00  4.1266E-002  
  582.50  4.1349E-002  
  583.00  4.1529E-002  
  583.50  4.1730E-002  
  584.00  4.1988E-002  
  584.50  4.2131E-002  
  585.00  4.2305E-002  
  585.50  4.2422E-002  
  586.00  4.2683E-002  
  586.50  4.2892E-002  
  587.00  4.3024E-002  
  587.50  4.3097E-002  
  588.00  4.3251E-002  
  588.50  4.3487E-002  
  589.00  4.3656E-002  
  589.50  4.3750E-002  
  590.00  4.3833E-002  
  590.50  4.3994E-002  
  591.00  4.4148E-002  
  591.50  4.4368E-002  
  592.00  4.4490E-002  
  592.50  4.4665E-002  
  593.00  4.4816E-002  
  593.50  4.4934E-002  
  594.00  4.5110E-002  
  594.50  4.5214E-002  
  595.00  4.5310E-002  
  595.50  4.5399E-002  
  596.00  4.5497E-002  
  596.50  4.5656E-002  
  597.00  4.5804E-002  
  597.50  4.5927E-002  
  598.00  4.6082E-002  
  598.50  4.6171E-002  
  599.00  4.6311E-002  
  599.50  4.6438E-002  
  600.00  4.6617E-002  
  600.50  4.6702E-002  
  601.00  4.6784E-002  
  601.50  4.6833E-002  
  602.00  4.6976E-002  
  602.50  4.7102E-002  
  603.00  4.7176E-002  
  603.50  4.7290E-002  
  604.00  4.7404E-002  
  604.50  4.7612E-002  
  605.00  4.7745E-002  
  605.50  4.7861E-002  
  606.00  4.7875E-002  
  606.50  4.7942E-002  
  607.00  4.8168E-002  
  607.50  4.8430E-002  
  608.00  4.8625E-002  
  608.50  4.8648E-002  
  609.00  4.8703E-002  
  609.50  4.8776E-002  
  610.00  4.8853E-002  
  610.50  4.8887E-002  
  611.00  4.8985E-002  
  611.50  4.9147E-002  
  612.00  4.9333E-002  
  612.50  4.9489E-002  
  613.00  4.9717E-002  
  613.50  4.9884E-002  
  614.00  5.0025E-002  
  614.50  5.0133E-002  
  615.00  5.0257E-002  
  615.50  5.0353E-002  
  616.00  5.0345E-002  
  616.50  5.0332E-002  
  617.00  5.0314E-002  
  617.50  5.0415E-002  
  618.00  5.0514E-002  
  618.50  5.0666E-002  
  619.00  5.0759E-002  
  619.50  5.0863E-002  
  620.00  5.0962E-002  
  620.50  5.1092E-002  
  621.00  5.1303E-002  
  621.50  5.1407E-002  
  622.00  5.1480E-002  
  622.50  5.1511E-002  
  623.00  5.1684E-002  
  623.50  5.1883E-002  
  624.00  5.2062E-002  
  624.50  5.2163E-002  
  625.00  5.2271E-002  
  625.50  5.2370E-002  
  626.00  5.2510E-002  
  626.50  5.2637E-002  
  627.00  5.2754E-002  
  627.50  5.2833E-002  
  628.00  5.2879E-002  
  628.50  5.2896E-002  
  629.00  5.2939E-002  
  629.50  5.3004E-002  
  630.00  5.3100E-002  
  630.50  5.3228E-002  
  631.00  5.3429E-002  
  631.50  5.3660E-002  
  632.00  5.3833E-002  
  632.50  5.3884E-002  
  633.00  5.3852E-002  
  633.50  5.3845E-002  
  634.00  5.3949E-002  
  634.50  5.4107E-002  
  635.00  5.4254E-002  
  635.50  5.4344E-002  
  636.00  5.4480E-002  
  636.50  5.4622E-002  
  637.00  5.4736E-002  
  637.50  5.4777E-002  
  638.00  5.4866E-002  
  638.50  5.5020E-002  
  639.00  5.5160E-002  
  639.50  5.5224E-002  
  640.00  5.5277E-002  
  640.50  5.5370E-002  
  641.00  5.5415E-002  
  641.50  5.5429E-002  
  642.00  5.5446E-002  
  642.50  5.5575E-002  
  643.00  5.5712E-002  
  643.50  5.5845E-002  
  644.00  5.5964E-002  
  644.50  5.6063E-002  
  645.00  5.6190E-002  
  645.50  5.6270E-002  
  646.00  5.6387E-002  
  646.50  5.6388E-002  
  647.00  5.6436E-002  
  647.50  5.6549E-002  
  648.00  5.6686E-002  
  648.50  5.6869E-002  
  649.00  5.6945E-002  
  649.50  5.7021E-002  
  650.00  5.7126E-002  
  650.50  5.7245E-002  
  651.00  5.7295E-002  
  651.50  5.7245E-002  
  652.00  5.7176E-002  
  652.50  5.7277E-002  
  653.00  5.7392E-002  
  653.50  5.7460E-002  
  654.00  5.7552E-002  
  654.50  5.7804E-002  
  655.00  5.8108E-002  
  655.50  5.8354E-002  
  656.00  5.8423E-002  
  656.50  5.8400E-002  
  657.00  5.8328E-002  
  657.50  5.8391E-002  
  658.00  5.8541E-002  
  658.50  5.8647E-002  
  659.00  5.8740E-002  
  659.50  5.8891E-002  
  660.00  5.9005E-002  
  660.50  5.8987E-002  
  661.00  5.8984E-002  
  661.50  5.9105E-002  
  662.00  5.9144E-002  
  662.50  5.9092E-002  
  663.00  5.9060E-002  
  663.50  5.9123E-002  
  664.00  5.9249E-002  
  664.50  5.9244E-002  
  665.00  5.9166E-002  
  665.50  5.9088E-002  
  666.00  5.9175E-002  
  666.50  5.9382E-002  
  667.00  5.9558E-002  
  667.50  5.9765E-002  
  668.00  5.9819E-002  
  668.50  5.9885E-002  
  669.00  5.9751E-002  
  669.50  5.9821E-002  
  670.00  6.0042E-002  
  670.50  6.0427E-002  
  671.00  6.0568E-002  
  671.50  6.0467E-002  
  672.00  6.0304E-002  
  672.50  6.0317E-002  
  673.00  6.0454E-002  
  673.50  6.0593E-002  
  674.00  6.0626E-002  
  674.50  6.0651E-002  
  675.00  6.0669E-002  
  675.50  6.0885E-002  
  676.00  6.0961E-002  
  676.50  6.1028E-002  
  677.00  6.1067E-002  
  677.50  6.1224E-002  
  678.00  6.1240E-002  
  678.50  6.1209E-002  
  679.00  6.1175E-002  
  679.50  6.1273E-002  
  680.00  6.1328E-002  
  680.50  6.1514E-002  
  681.00  6.1684E-002  
