
# From lspdd.org
# 
# Name: DEL Standard A19 Omni Domestique
# Indice spectral Valeur 
# MSI 0.24 
# SLI 0.45 
# IPI 0.63 
# Pourcentage de bleu 15.8 
# Caractéristique Valeur 
# CCT calculée (K) 2638 
# CCT du fabricant (K) 2700 
# Tension (V) 120 
# Puissance (W) 13.5 
# Efficacité lumineuse (Lum/W) 59.3 
#
# Image: '/app/system/img_2s/2587/medium_image2.JPG?1413486507'
# Image: '/app/system/img_1s/2587/medium_image1.JPG?1413486510'
# 

  273.00  0.0000E+000  
  273.50  0.0000E+000  
  274.00  0.0000E+000  
  274.50  0.0000E+000  
  275.00  0.0000E+000  
  275.50  0.0000E+000  
  276.00  0.0000E+000  
  276.50  0.0000E+000  
  277.00  0.0000E+000  
  277.50  0.0000E+000  
  278.00  0.0000E+000  
  278.50  0.0000E+000  
  279.00  0.0000E+000  
  279.50  0.0000E+000  
  280.00  0.0000E+000  
  280.50  0.0000E+000  
  281.00  0.0000E+000  
  281.50  0.0000E+000  
  282.00  0.0000E+000  
  282.50  0.0000E+000  
  283.00  0.0000E+000  
  283.50  0.0000E+000  
  284.00  0.0000E+000  
  284.50  0.0000E+000  
  285.00  0.0000E+000  
  285.50  0.0000E+000  
  286.00  0.0000E+000  
  286.50  0.0000E+000  
  287.00  0.0000E+000  
  287.50  0.0000E+000  
  288.00  0.0000E+000  
  288.50  0.0000E+000  
  289.00  0.0000E+000  
  289.50  0.0000E+000  
  290.00  0.0000E+000  
  290.50  0.0000E+000  
  291.00  0.0000E+000  
  291.50  0.0000E+000  
  292.00  0.0000E+000  
  292.50  0.0000E+000  
  293.00  0.0000E+000  
  293.50  0.0000E+000  
  294.00  0.0000E+000  
  294.50  0.0000E+000  
  295.00  0.0000E+000  
  295.50  0.0000E+000  
  296.00  0.0000E+000  
  296.50  0.0000E+000  
  297.00  0.0000E+000  
  297.50  0.0000E+000  
  298.00  0.0000E+000  
  298.50  0.0000E+000  
  299.00  0.0000E+000  
  299.50  0.0000E+000  
  300.00  0.0000E+000  
  300.50  0.0000E+000  
  301.00  0.0000E+000  
  301.50  0.0000E+000  
  302.00  0.0000E+000  
  302.50  0.0000E+000  
  303.00  0.0000E+000  
  303.50  0.0000E+000  
  304.00  0.0000E+000  
  304.50  0.0000E+000  
  305.00  0.0000E+000  
  305.50  0.0000E+000  
  306.00  0.0000E+000  
  306.50  0.0000E+000  
  307.00  0.0000E+000  
  307.50  0.0000E+000  
  308.00  0.0000E+000  
  308.50  0.0000E+000  
  309.00  0.0000E+000  
  309.50  0.0000E+000  
  310.00  0.0000E+000  
  310.50  0.0000E+000  
  311.00  0.0000E+000  
  311.50  0.0000E+000  
  312.00  0.0000E+000  
  312.50  0.0000E+000  
  313.00  0.0000E+000  
  313.50  0.0000E+000  
  314.00  0.0000E+000  
  314.50  0.0000E+000  
  315.00  0.0000E+000  
  315.50  0.0000E+000  
  316.00  0.0000E+000  
  316.50  0.0000E+000  
  317.00  0.0000E+000  
  317.50  0.0000E+000  
  318.00  0.0000E+000  
  318.50  0.0000E+000  
  319.00  0.0000E+000  
  319.50  0.0000E+000  
  320.00  0.0000E+000  
  320.50  0.0000E+000  
  321.00  0.0000E+000  
  321.50  0.0000E+000  
  322.00  0.0000E+000  
  322.50  0.0000E+000  
  323.00  0.0000E+000  
  323.50  0.0000E+000  
  324.00  0.0000E+000  
  324.50  0.0000E+000  
  325.00  0.0000E+000  
  325.50  0.0000E+000  
  326.00  0.0000E+000  
  326.50  0.0000E+000  
  327.00  0.0000E+000  
  327.50  0.0000E+000  
  328.00  0.0000E+000  
  328.50  0.0000E+000  
  329.00  0.0000E+000  
  329.50  0.0000E+000  
  330.00  0.0000E+000  
  330.50  0.0000E+000  
  331.00  0.0000E+000  
  331.50  0.0000E+000  
  332.00  0.0000E+000  
  332.50  0.0000E+000  
  333.00  0.0000E+000  
  333.50  0.0000E+000  
  334.00  0.0000E+000  
  334.50  0.0000E+000  
  335.00  0.0000E+000  
  335.50  0.0000E+000  
  336.00  0.0000E+000  
  336.50  0.0000E+000  
  337.00  0.0000E+000  
  337.50  0.0000E+000  
  338.00  0.0000E+000  
  338.50  0.0000E+000  
  339.00  0.0000E+000  
  339.50  0.0000E+000  
  340.00  0.0000E+000  
  340.50  0.0000E+000  
  341.00  0.0000E+000  
  341.50  0.0000E+000  
  342.00  0.0000E+000  
  342.50  0.0000E+000  
  343.00  0.0000E+000  
  343.50  0.0000E+000  
  344.00  0.0000E+000  
  344.50  0.0000E+000  
  345.00  0.0000E+000  
  345.50  0.0000E+000  
  346.00  0.0000E+000  
  346.50  0.0000E+000  
  347.00  0.0000E+000  
  347.50  0.0000E+000  
  348.00  0.0000E+000  
  348.50  0.0000E+000  
  349.00  0.0000E+000  
  349.50  0.0000E+000  
  350.00  0.0000E+000  
  350.50  0.0000E+000  
  351.00  0.0000E+000  
  351.50  0.0000E+000  
  352.00  0.0000E+000  
  352.50  0.0000E+000  
  353.00  0.0000E+000  
  353.50  0.0000E+000  
  354.00  0.0000E+000  
  354.50  0.0000E+000  
  355.00  0.0000E+000  
  355.50  0.0000E+000  
  356.00  0.0000E+000  
  356.50  0.0000E+000  
  357.00  0.0000E+000  
  357.50  0.0000E+000  
  358.00  0.0000E+000  
  358.50  0.0000E+000  
  359.00  0.0000E+000  
  359.50  0.0000E+000  
  360.00  0.0000E+000  
  360.50  0.0000E+000  
  361.00  0.0000E+000  
  361.50  0.0000E+000  
  362.00  0.0000E+000  
  362.50  0.0000E+000  
  363.00  0.0000E+000  
  363.50  0.0000E+000  
  364.00  0.0000E+000  
  364.50  0.0000E+000  
  365.00  0.0000E+000  
  365.50  0.0000E+000  
  366.00  0.0000E+000  
  366.50  0.0000E+000  
  367.00  0.0000E+000  
  367.50  0.0000E+000  
  368.00  0.0000E+000  
  368.50  0.0000E+000  
  369.00  0.0000E+000  
  369.50  0.0000E+000  
  370.00  0.0000E+000  
  370.50  0.0000E+000  
  371.00  0.0000E+000  
  371.50  0.0000E+000  
  372.00  0.0000E+000  
  372.50  0.0000E+000  
  373.00  0.0000E+000  
  373.50  0.0000E+000  
  374.00  0.0000E+000  
  374.50  0.0000E+000  
  375.00  0.0000E+000  
  375.50  0.0000E+000  
  376.00  0.0000E+000  
  376.50  0.0000E+000  
  377.00  0.0000E+000  
  377.50  0.0000E+000  
  378.00  0.0000E+000  
  378.50  0.0000E+000  
  379.00  0.0000E+000  
  379.50  0.0000E+000  
  380.00  0.0000E+000  
  380.50  0.0000E+000  
  381.00  0.0000E+000  
  381.50  0.0000E+000  
  382.00  0.0000E+000  
  382.50  0.0000E+000  
  383.00  0.0000E+000  
  383.50  0.0000E+000  
  384.00  0.0000E+000  
  384.50  0.0000E+000  
  385.00  0.0000E+000  
  385.50  0.0000E+000  
  386.00  0.0000E+000  
  386.50  0.0000E+000  
  387.00  0.0000E+000  
  387.50  0.0000E+000  
  388.00  0.0000E+000  
  388.50  0.0000E+000  
  389.00  0.0000E+000  
  389.50  0.0000E+000  
  390.00  0.0000E+000  
  390.50  0.0000E+000  
  391.00  0.0000E+000  
  391.50  0.0000E+000  
  392.00  0.0000E+000  
  392.50  0.0000E+000  
  393.00  0.0000E+000  
  393.50  0.0000E+000  
  394.00  0.0000E+000  
  394.50  0.0000E+000  
  395.00  0.0000E+000  
  395.50  0.0000E+000  
  396.00  0.0000E+000  
  396.50  0.0000E+000  
  397.00  0.0000E+000  
  397.50  0.0000E+000  
  398.00  0.0000E+000  
  398.50  0.0000E+000  
  399.00  0.0000E+000  
  399.50  0.0000E+000  
  400.00  0.0000E+000  
  400.50  0.0000E+000  
  401.00  0.0000E+000  
  401.50  0.0000E+000  
  402.00  0.0000E+000  
  402.50  0.0000E+000  
  403.00  0.0000E+000  
  403.50  0.0000E+000  
  404.00  0.0000E+000  
  404.50  0.0000E+000  
  405.00  0.0000E+000  
  405.50  0.0000E+000  
  406.00  0.0000E+000  
  406.50  0.0000E+000  
  407.00  0.0000E+000  
  407.50  3.0220E-005  
  408.00  5.5897E-005  
  408.50  6.5968E-006  
  409.00  0.0000E+000  
  409.50  0.0000E+000  
  410.00  0.0000E+000  
  410.50  7.9334E-005  
  411.00  1.8434E-004  
  411.50  2.5565E-004  
  412.00  2.8194E-004  
  412.50  2.4258E-004  
  413.00  1.7486E-004  
  413.50  1.5783E-004  
  414.00  1.9097E-004  
  414.50  2.9085E-004  
  415.00  4.0225E-004  
  415.50  4.8470E-004  
  416.00  5.8483E-004  
  416.50  6.6012E-004  
  417.00  7.3251E-004  
  417.50  8.0129E-004  
  418.00  8.4972E-004  
  418.50  8.7298E-004  
  419.00  9.3536E-004  
  419.50  1.0290E-003  
  420.00  1.2035E-003  
  420.50  1.3914E-003  
  421.00  1.4880E-003  
  421.50  1.5876E-003  
  422.00  1.6967E-003  
  422.50  1.8668E-003  
  423.00  2.0228E-003  
  423.50  2.1552E-003  
  424.00  2.2627E-003  
  424.50  2.3441E-003  
  425.00  2.5040E-003  
  425.50  2.6422E-003  
  426.00  2.8107E-003  
  426.50  2.9636E-003  
  427.00  3.0962E-003  
  427.50  3.2824E-003  
  428.00  3.4923E-003  
  428.50  3.6674E-003  
  429.00  3.8856E-003  
  429.50  4.0615E-003  
  430.00  4.2502E-003  
  430.50  4.4679E-003  
  431.00  4.6236E-003  
  431.50  4.8172E-003  
  432.00  5.0082E-003  
  432.50  5.2298E-003  
  433.00  5.4435E-003  
  433.50  5.6723E-003  
  434.00  5.9202E-003  
  434.50  6.2375E-003  
  435.00  6.6031E-003  
  435.50  6.9865E-003  
  436.00  7.3039E-003  
  436.50  7.6151E-003  
  437.00  7.9386E-003  
  437.50  8.3047E-003  
  438.00  8.6816E-003  
  438.50  9.0548E-003  
  439.00  9.4015E-003  
  439.50  9.8627E-003  
  440.00  1.0347E-002  
  440.50  1.0821E-002  
  441.00  1.1323E-002  
  441.50  1.1802E-002  
  442.00  1.2410E-002  
  442.50  1.2961E-002  
  443.00  1.3555E-002  
  443.50  1.4105E-002  
  444.00  1.4726E-002  
  444.50  1.5406E-002  
  445.00  1.6068E-002  
  445.50  1.6622E-002  
  446.00  1.7143E-002  
  446.50  1.7650E-002  
  447.00  1.8185E-002  
  447.50  1.8739E-002  
  448.00  1.9218E-002  
  448.50  1.9678E-002  
  449.00  2.0146E-002  
  449.50  2.0503E-002  
  450.00  2.0757E-002  
  450.50  2.0850E-002  
  451.00  2.0841E-002  
  451.50  2.0849E-002  
  452.00  2.0878E-002  
  452.50  2.0816E-002  
  453.00  2.0768E-002  
  453.50  2.0551E-002  
  454.00  2.0248E-002  
  454.50  1.9865E-002  
  455.00  1.9497E-002  
  455.50  1.9172E-002  
  456.00  1.8758E-002  
  456.50  1.8373E-002  
  457.00  1.7973E-002  
  457.50  1.7653E-002  
  458.00  1.7331E-002  
  458.50  1.6910E-002  
  459.00  1.6474E-002  
  459.50  1.6044E-002  
  460.00  1.5716E-002  
  460.50  1.5377E-002  
  461.00  1.5083E-002  
  461.50  1.4791E-002  
  462.00  1.4553E-002  
  462.50  1.4263E-002  
  463.00  1.3877E-002  
  463.50  1.3501E-002  
  464.00  1.3234E-002  
  464.50  1.3092E-002  
  465.00  1.2998E-002  
  465.50  1.2810E-002  
  466.00  1.2540E-002  
  466.50  1.2296E-002  
  467.00  1.2117E-002  
  467.50  1.2038E-002  
  468.00  1.1899E-002  
  468.50  1.1740E-002  
  469.00  1.1555E-002  
  469.50  1.1449E-002  
  470.00  1.1279E-002  
  470.50  1.1173E-002  
  471.00  1.0975E-002  
  471.50  1.0760E-002  
  472.00  1.0557E-002  
  472.50  1.0407E-002  
  473.00  1.0323E-002  
  473.50  1.0293E-002  
  474.00  1.0173E-002  
  474.50  1.0055E-002  
  475.00  9.9598E-003  
  475.50  9.8769E-003  
  476.00  9.8310E-003  
  476.50  9.7486E-003  
  477.00  9.7072E-003  
  477.50  9.6497E-003  
  478.00  9.5399E-003  
  478.50  9.4534E-003  
  479.00  9.3952E-003  
  479.50  9.3886E-003  
  480.00  9.4588E-003  
  480.50  9.4668E-003  
  481.00  9.4958E-003  
  481.50  9.5030E-003  
  482.00  9.5217E-003  
  482.50  9.5442E-003  
  483.00  9.5604E-003  
  483.50  9.6053E-003  
  484.00  9.6526E-003  
  484.50  9.6981E-003  
  485.00  9.7145E-003  
  485.50  9.7664E-003  
  486.00  9.8314E-003  
  486.50  9.9815E-003  
  487.00  1.0109E-002  
  487.50  1.0213E-002  
  488.00  1.0320E-002  
  488.50  1.0404E-002  
  489.00  1.0537E-002  
  489.50  1.0660E-002  
  490.00  1.0798E-002  
  490.50  1.0959E-002  
  491.00  1.1154E-002  
  491.50  1.1327E-002  
  492.00  1.1510E-002  
  492.50  1.1678E-002  
  493.00  1.1891E-002  
  493.50  1.2115E-002  
  494.00  1.2311E-002  
  494.50  1.2468E-002  
  495.00  1.2619E-002  
  495.50  1.2856E-002  
  496.00  1.3107E-002  
  496.50  1.3380E-002  
  497.00  1.3615E-002  
  497.50  1.3875E-002  
  498.00  1.4154E-002  
  498.50  1.4445E-002  
  499.00  1.4714E-002  
  499.50  1.4937E-002  
  500.00  1.5152E-002  
  500.50  1.5327E-002  
  501.00  1.5560E-002  
  501.50  1.5845E-002  
  502.00  1.6215E-002  
  502.50  1.6595E-002  
  503.00  1.6835E-002  
  503.50  1.7035E-002  
  504.00  1.7262E-002  
  504.50  1.7579E-002  
  505.00  1.7973E-002  
  505.50  1.8326E-002  
  506.00  1.8615E-002  
  506.50  1.8807E-002  
  507.00  1.9015E-002  
  507.50  1.9229E-002  
  508.00  1.9534E-002  
  508.50  1.9850E-002  
  509.00  2.0164E-002  
  509.50  2.0483E-002  
  510.00  2.0788E-002  
  510.50  2.1105E-002  
  511.00  2.1387E-002  
  511.50  2.1673E-002  
  512.00  2.1968E-002  
  512.50  2.2282E-002  
  513.00  2.2612E-002  
  513.50  2.2917E-002  
  514.00  2.3184E-002  
  514.50  2.3416E-002  
  515.00  2.3616E-002  
  515.50  2.3883E-002  
  516.00  2.4189E-002  
  516.50  2.4503E-002  
  517.00  2.4808E-002  
  517.50  2.5086E-002  
  518.00  2.5335E-002  
  518.50  2.5603E-002  
  519.00  2.5873E-002  
  519.50  2.6152E-002  
  520.00  2.6459E-002  
  520.50  2.6760E-002  
  521.00  2.7068E-002  
  521.50  2.7406E-002  
  522.00  2.7677E-002  
  522.50  2.7970E-002  
  523.00  2.8229E-002  
  523.50  2.8513E-002  
  524.00  2.8765E-002  
  524.50  2.9030E-002  
  525.00  2.9303E-002  
  525.50  2.9598E-002  
  526.00  2.9909E-002  
  526.50  3.0203E-002  
  527.00  3.0485E-002  
  527.50  3.0728E-002  
  528.00  3.0983E-002  
  528.50  3.1263E-002  
  529.00  3.1562E-002  
  529.50  3.1811E-002  
  530.00  3.2034E-002  
  530.50  3.2315E-002  
  531.00  3.2599E-002  
  531.50  3.2859E-002  
  532.00  3.3154E-002  
  532.50  3.3446E-002  
  533.00  3.3763E-002  
  533.50  3.4062E-002  
  534.00  3.4314E-002  
  534.50  3.4624E-002  
  535.00  3.4898E-002  
  535.50  3.5191E-002  
  536.00  3.5468E-002  
  536.50  3.5708E-002  
  537.00  3.5953E-002  
  537.50  3.6162E-002  
  538.00  3.6431E-002  
  538.50  3.6683E-002  
  539.00  3.6971E-002  
  539.50  3.7283E-002  
  540.00  3.7655E-002  
  540.50  3.8015E-002  
  541.00  3.8314E-002  
  541.50  3.8563E-002  
  542.00  3.8806E-002  
  542.50  3.9045E-002  
  543.00  3.9348E-002  
  543.50  3.9630E-002  
  544.00  3.9953E-002  
  544.50  4.0261E-002  
  545.00  4.0522E-002  
  545.50  4.0819E-002  
  546.00  4.1101E-002  
  546.50  4.1440E-002  
  547.00  4.1814E-002  
  547.50  4.2193E-002  
  548.00  4.2544E-002  
  548.50  4.2847E-002  
  549.00  4.3146E-002  
  549.50  4.3388E-002  
  550.00  4.3642E-002  
  550.50  4.3955E-002  
  551.00  4.4329E-002  
  551.50  4.4748E-002  
  552.00  4.5120E-002  
  552.50  4.5438E-002  
  553.00  4.5770E-002  
  553.50  4.6113E-002  
  554.00  4.6430E-002  
  554.50  4.6795E-002  
  555.00  4.7103E-002  
  555.50  4.7415E-002  
  556.00  4.7779E-002  
  556.50  4.8168E-002  
  557.00  4.8587E-002  
  557.50  4.9019E-002  
  558.00  4.9390E-002  
  558.50  4.9733E-002  
  559.00  5.0014E-002  
  559.50  5.0321E-002  
  560.00  5.0723E-002  
  560.50  5.1165E-002  
  561.00  5.1598E-002  
  561.50  5.1947E-002  
  562.00  5.2319E-002  
  562.50  5.2680E-002  
  563.00  5.3082E-002  
  563.50  5.3463E-002  
  564.00  5.3729E-002  
  564.50  5.3994E-002  
  565.00  5.4269E-002  
  565.50  5.4653E-002  
  566.00  5.5098E-002  
  566.50  5.5528E-002  
  567.00  5.5890E-002  
  567.50  5.6193E-002  
  568.00  5.6511E-002  
  568.50  5.6839E-002  
  569.00  5.7191E-002  
  569.50  5.7607E-002  
  570.00  5.8016E-002  
  570.50  5.8399E-002  
  571.00  5.8736E-002  
  571.50  5.9150E-002  
  572.00  5.9587E-002  
  572.50  6.0021E-002  
  573.00  6.0341E-002  
  573.50  6.0740E-002  
  574.00  6.1148E-002  
  574.50  6.1555E-002  
  575.00  6.1874E-002  
  575.50  6.2250E-002  
  576.00  6.2635E-002  
  576.50  6.2976E-002  
  577.00  6.3238E-002  
  577.50  6.3520E-002  
  578.00  6.3933E-002  
  578.50  6.4378E-002  
  579.00  6.4783E-002  
  579.50  6.5119E-002  
  580.00  6.5467E-002  
  580.50  6.5905E-002  
  581.00  6.6243E-002  
  581.50  6.6515E-002  
  582.00  6.6742E-002  
  582.50  6.7084E-002  
  583.00  6.7567E-002  
  583.50  6.8035E-002  
  584.00  6.8414E-002  
  584.50  6.8707E-002  
  585.00  6.8996E-002  
  585.50  6.9246E-002  
  586.00  6.9572E-002  
  586.50  6.9936E-002  
  587.00  7.0285E-002  
  587.50  7.0532E-002  
  588.00  7.0780E-002  
  588.50  7.1021E-002  
  589.00  7.1352E-002  
  589.50  7.1653E-002  
  590.00  7.2003E-002  
  590.50  7.2345E-002  
  591.00  7.2645E-002  
  591.50  7.3003E-002  
  592.00  7.3261E-002  
  592.50  7.3379E-002  
  593.00  7.3425E-002  
  593.50  7.3513E-002  
  594.00  7.3728E-002  
  594.50  7.3938E-002  
  595.00  7.4174E-002  
  595.50  7.4400E-002  
  596.00  7.4656E-002  
  596.50  7.4915E-002  
  597.00  7.5153E-002  
  597.50  7.5256E-002  
  598.00  7.5285E-002  
  598.50  7.5371E-002  
  599.00  7.5590E-002  
  599.50  7.5755E-002  
  600.00  7.5836E-002  
  600.50  7.5884E-002  
  601.00  7.6014E-002  
  601.50  7.6109E-002  
  602.00  7.6161E-002  
  602.50  7.6207E-002  
  603.00  7.6253E-002  
  603.50  7.6209E-002  
  604.00  7.6164E-002  
  604.50  7.6227E-002  
  605.00  7.6271E-002  
  605.50  7.6224E-002  
  606.00  7.6083E-002  
  606.50  7.6086E-002  
  607.00  7.6188E-002  
  607.50  7.6291E-002  
  608.00  7.6293E-002  
  608.50  7.6260E-002  
  609.00  7.6123E-002  
  609.50  7.6058E-002  
  610.00  7.5966E-002  
  610.50  7.5911E-002  
  611.00  7.5835E-002  
  611.50  7.5791E-002  
  612.00  7.5740E-002  
  612.50  7.5580E-002  
  613.00  7.5351E-002  
  613.50  7.5103E-002  
  614.00  7.4944E-002  
  614.50  7.4752E-002  
  615.00  7.4572E-002  
  615.50  7.4366E-002  
  616.00  7.4194E-002  
  616.50  7.3967E-002  
  617.00  7.3557E-002  
  617.50  7.3062E-002  
  618.00  7.2761E-002  
  618.50  7.2597E-002  
  619.00  7.2445E-002  
  619.50  7.2106E-002  
  620.00  7.1804E-002  
  620.50  7.1573E-002  
  621.00  7.1298E-002  
  621.50  7.0916E-002  
  622.00  7.0538E-002  
  622.50  7.0036E-002  
  623.00  6.9645E-002  
  623.50  6.9333E-002  
  624.00  6.9126E-002  
  624.50  6.8799E-002  
  625.00  6.8374E-002  
  625.50  6.7942E-002  
  626.00  6.7552E-002  
  626.50  6.7101E-002  
  627.00  6.6755E-002  
  627.50  6.6389E-002  
  628.00  6.6074E-002  
  628.50  6.5626E-002  
  629.00  6.5247E-002  
  629.50  6.4792E-002  
  630.00  6.4318E-002  
  630.50  6.3771E-002  
  631.00  6.3303E-002  
  631.50  6.2997E-002  
  632.00  6.2736E-002  
  632.50  6.2320E-002  
  633.00  6.1792E-002  
  633.50  6.1199E-002  
  634.00  6.0709E-002  
  634.50  6.0272E-002  
  635.00  5.9843E-002  
  635.50  5.9309E-002  
  636.00  5.8825E-002  
  636.50  5.8428E-002  
  637.00  5.8072E-002  
  637.50  5.7596E-002  
  638.00  5.6945E-002  
  638.50  5.6467E-002  
  639.00  5.6049E-002  
  639.50  5.5691E-002  
  640.00  5.5269E-002  
  640.50  5.4761E-002  
  641.00  5.4253E-002  
  641.50  5.3691E-002  
  642.00  5.3267E-002  
  642.50  5.2730E-002  
  643.00  5.2178E-002  
  643.50  5.1620E-002  
  644.00  5.1242E-002  
  644.50  5.0820E-002  
  645.00  5.0320E-002  
  645.50  4.9708E-002  
  646.00  4.9205E-002  
  646.50  4.8674E-002  
  647.00  4.8269E-002  
  647.50  4.7770E-002  
  648.00  4.7308E-002  
  648.50  4.6802E-002  
  649.00  4.6389E-002  
  649.50  4.5903E-002  
  650.00  4.5456E-002  
  650.50  4.4913E-002  
  651.00  4.4507E-002  
  651.50  4.4023E-002  
  652.00  4.3584E-002  
  652.50  4.2983E-002  
  653.00  4.2355E-002  
  653.50  4.1767E-002  
  654.00  4.1311E-002  
  654.50  4.0802E-002  
  655.00  4.0340E-002  
  655.50  3.9887E-002  
  656.00  3.9577E-002  
  656.50  3.9095E-002  
  657.00  3.8670E-002  
  657.50  3.8266E-002  
  658.00  3.7916E-002  
  658.50  3.7484E-002  
  659.00  3.6998E-002  
  659.50  3.6505E-002  
  660.00  3.5918E-002  
  660.50  3.5380E-002  
  661.00  3.4883E-002  
  661.50  3.4491E-002  
  662.00  3.4046E-002  
  662.50  3.3718E-002  
  663.00  3.3427E-002  
  663.50  3.3122E-002  
  664.00  3.2653E-002  
  664.50  3.2103E-002  
  665.00  3.1571E-002  
  665.50  3.1083E-002  
  666.00  3.0609E-002  
  666.50  3.0195E-002  
  667.00  2.9815E-002  
  667.50  2.9436E-002  
  668.00  2.9093E-002  
  668.50  2.8753E-002  
  669.00  2.8425E-002  
  669.50  2.8004E-002  
  670.00  2.7485E-002  
  670.50  2.7025E-002  
  671.00  2.6629E-002  
  671.50  2.6316E-002  
  672.00  2.6029E-002  
  672.50  2.5752E-002  
  673.00  2.5436E-002  
  673.50  2.5050E-002  
  674.00  2.4641E-002  
  674.50  2.4325E-002  
  675.00  2.4013E-002  
  675.50  2.3658E-002  
  676.00  2.3216E-002  
  676.50  2.2848E-002  
  677.00  2.2527E-002  
  677.50  2.2271E-002  
  678.00  2.1952E-002  
  678.50  2.1590E-002  
  679.00  2.1255E-002  
  679.50  2.0987E-002  
