
# From lspdd.org
# 
# Name: INC Sylvania A19 Domestique
# Indice spectral Valeur 
# MSI 0.30 
# SLI 0.51 
# IPI 0.95 
# Pourcentage de bleu 12.6 
# Caractéristique Valeur 
# CCT calculée (K) 2657 
# CCT du fabricant (K) 2659 
# Tension (V) 120 
# Puissance (W) 100.0 
# Efficacité lumineuse (Lum/W) 12.6 
#
# Image: '/app/system/img_2s/2590/medium_image2.JPG?1413486529'
# Image: '/app/system/img_1s/2590/medium_image1.JPG?1413486530'
# 

  273.00  0.0000E+000  
  273.50  0.0000E+000  
  274.00  0.0000E+000  
  274.50  0.0000E+000  
  275.00  0.0000E+000  
  275.50  0.0000E+000  
  276.00  0.0000E+000  
  276.50  0.0000E+000  
  277.00  0.0000E+000  
  277.50  0.0000E+000  
  278.00  0.0000E+000  
  278.50  0.0000E+000  
  279.00  0.0000E+000  
  279.50  0.0000E+000  
  280.00  0.0000E+000  
  280.50  0.0000E+000  
  281.00  0.0000E+000  
  281.50  0.0000E+000  
  282.00  0.0000E+000  
  282.50  0.0000E+000  
  283.00  0.0000E+000  
  283.50  0.0000E+000  
  284.00  0.0000E+000  
  284.50  0.0000E+000  
  285.00  0.0000E+000  
  285.50  0.0000E+000  
  286.00  0.0000E+000  
  286.50  0.0000E+000  
  287.00  0.0000E+000  
  287.50  0.0000E+000  
  288.00  0.0000E+000  
  288.50  0.0000E+000  
  289.00  0.0000E+000  
  289.50  0.0000E+000  
  290.00  0.0000E+000  
  290.50  0.0000E+000  
  291.00  0.0000E+000  
  291.50  0.0000E+000  
  292.00  0.0000E+000  
  292.50  0.0000E+000  
  293.00  0.0000E+000  
  293.50  0.0000E+000  
  294.00  0.0000E+000  
  294.50  0.0000E+000  
  295.00  0.0000E+000  
  295.50  0.0000E+000  
  296.00  0.0000E+000  
  296.50  0.0000E+000  
  297.00  0.0000E+000  
  297.50  0.0000E+000  
  298.00  0.0000E+000  
  298.50  0.0000E+000  
  299.00  0.0000E+000  
  299.50  0.0000E+000  
  300.00  0.0000E+000  
  300.50  0.0000E+000  
  301.00  0.0000E+000  
  301.50  0.0000E+000  
  302.00  0.0000E+000  
  302.50  5.8727E-006  
  303.00  2.3298E-005  
  303.50  1.3881E-005  
  304.00  2.4479E-005  
  304.50  7.0378E-005  
  305.00  9.4983E-005  
  305.50  9.2755E-005  
  306.00  1.0182E-004  
  306.50  1.4591E-004  
  307.00  1.7217E-004  
  307.50  2.1727E-004  
  308.00  2.2367E-004  
  308.50  2.2189E-004  
  309.00  2.7579E-004  
  309.50  2.8376E-004  
  310.00  2.5800E-004  
  310.50  2.2760E-004  
  311.00  1.4229E-004  
  311.50  6.3327E-005  
  312.00  3.0393E-005  
  312.50  7.2106E-005  
  313.00  1.3489E-004  
  313.50  1.7670E-004  
  314.00  1.9956E-004  
  314.50  1.2955E-004  
  315.00  1.0703E-004  
  315.50  8.4700E-005  
  316.00  5.5579E-005  
  316.50  1.0143E-004  
  317.00  1.2516E-004  
  317.50  2.0894E-004  
  318.00  2.3683E-004  
  318.50  2.0219E-004  
  319.00  1.9366E-004  
  319.50  1.9020E-004  
  320.00  2.4096E-004  
  320.50  3.0643E-004  
  321.00  3.4941E-004  
  321.50  3.8021E-004  
  322.00  3.4754E-004  
  322.50  3.2181E-004  
  323.00  3.0415E-004  
  323.50  2.6962E-004  
  324.00  2.5789E-004  
  324.50  2.9994E-004  
  325.00  3.2828E-004  
  325.50  3.7084E-004  
  326.00  3.5638E-004  
  326.50  3.0360E-004  
  327.00  2.6359E-004  
  327.50  2.4705E-004  
  328.00  3.1584E-004  
  328.50  3.7518E-004  
  329.00  4.0057E-004  
  329.50  3.8520E-004  
  330.00  3.1412E-004  
  330.50  2.6240E-004  
  331.00  2.1935E-004  
  331.50  2.1162E-004  
  332.00  2.5183E-004  
  332.50  3.2391E-004  
  333.00  4.2670E-004  
  333.50  5.1004E-004  
  334.00  5.4788E-004  
  334.50  5.5036E-004  
  335.00  5.3308E-004  
  335.50  5.0272E-004  
  336.00  4.6753E-004  
  336.50  4.3529E-004  
  337.00  4.0521E-004  
  337.50  4.4323E-004  
  338.00  4.9296E-004  
  338.50  5.0446E-004  
  339.00  5.1408E-004  
  339.50  4.2071E-004  
  340.00  3.6857E-004  
  340.50  3.7828E-004  
  341.00  4.3253E-004  
  341.50  5.1681E-004  
  342.00  5.6920E-004  
  342.50  5.9198E-004  
  343.00  5.6835E-004  
  343.50  6.1932E-004  
  344.00  6.4563E-004  
  344.50  6.3248E-004  
  345.00  6.6073E-004  
  345.50  6.0968E-004  
  346.00  5.6968E-004  
  346.50  5.7770E-004  
  347.00  5.9052E-004  
  347.50  6.6227E-004  
  348.00  7.7254E-004  
  348.50  8.2947E-004  
  349.00  8.1795E-004  
  349.50  8.1937E-004  
  350.00  7.7991E-004  
  350.50  7.5303E-004  
  351.00  7.6353E-004  
  351.50  7.1593E-004  
  352.00  7.1920E-004  
  352.50  7.6067E-004  
  353.00  8.3987E-004  
  353.50  8.4579E-004  
  354.00  8.4135E-004  
  354.50  7.8643E-004  
  355.00  7.4723E-004  
  355.50  8.3838E-004  
  356.00  9.0444E-004  
  356.50  1.0155E-003  
  357.00  1.0759E-003  
  357.50  1.0792E-003  
  358.00  1.0853E-003  
  358.50  1.0641E-003  
  359.00  1.0695E-003  
  359.50  1.0798E-003  
  360.00  1.0796E-003  
  360.50  1.1061E-003  
  361.00  1.1283E-003  
  361.50  1.1567E-003  
  362.00  1.1831E-003  
  362.50  1.1742E-003  
  363.00  1.1887E-003  
  363.50  1.1789E-003  
  364.00  1.2005E-003  
  364.50  1.1910E-003  
  365.00  1.2323E-003  
  365.50  1.3243E-003  
  366.00  1.3510E-003  
  366.50  1.3540E-003  
  367.00  1.3000E-003  
  367.50  1.2035E-003  
  368.00  1.1773E-003  
  368.50  1.2182E-003  
  369.00  1.2858E-003  
  369.50  1.3833E-003  
  370.00  1.4248E-003  
  370.50  1.4201E-003  
  371.00  1.4271E-003  
  371.50  1.4179E-003  
  372.00  1.4459E-003  
  372.50  1.4632E-003  
  373.00  1.4377E-003  
  373.50  1.4727E-003  
  374.00  1.4796E-003  
  374.50  1.5307E-003  
  375.00  1.5922E-003  
  375.50  1.6213E-003  
  376.00  1.6241E-003  
  376.50  1.6769E-003  
  377.00  1.7291E-003  
  377.50  1.7956E-003  
  378.00  1.8118E-003  
  378.50  1.7693E-003  
  379.00  1.7225E-003  
  379.50  1.7518E-003  
  380.00  1.8396E-003  
  380.50  1.9066E-003  
  381.00  1.9712E-003  
  381.50  1.9688E-003  
  382.00  1.9685E-003  
  382.50  1.9405E-003  
  383.00  1.9475E-003  
  383.50  2.0134E-003  
  384.00  2.0630E-003  
  384.50  2.1264E-003  
  385.00  2.1880E-003  
  385.50  2.1977E-003  
  386.00  2.2170E-003  
  386.50  2.2513E-003  
  387.00  2.2386E-003  
  387.50  2.2486E-003  
  388.00  2.2861E-003  
  388.50  2.3011E-003  
  389.00  2.3373E-003  
  389.50  2.3784E-003  
  390.00  2.4364E-003  
  390.50  2.4967E-003  
  391.00  2.4874E-003  
  391.50  2.5041E-003  
  392.00  2.5182E-003  
  392.50  2.5378E-003  
  393.00  2.5722E-003  
  393.50  2.5913E-003  
  394.00  2.5970E-003  
  394.50  2.6147E-003  
  395.00  2.6224E-003  
  395.50  2.6053E-003  
  396.00  2.6446E-003  
  396.50  2.7271E-003  
  397.00  2.7774E-003  
  397.50  2.7941E-003  
  398.00  2.7754E-003  
  398.50  2.7368E-003  
  399.00  2.8047E-003  
  399.50  2.8729E-003  
  400.00  2.8983E-003  
  400.50  2.8907E-003  
  401.00  2.8989E-003  
  401.50  2.9332E-003  
  402.00  3.0123E-003  
  402.50  3.1157E-003  
  403.00  3.1567E-003  
  403.50  3.1587E-003  
  404.00  3.1564E-003  
  404.50  3.1542E-003  
  405.00  3.2102E-003  
  405.50  3.3386E-003  
  406.00  3.4265E-003  
  406.50  3.4612E-003  
  407.00  3.4913E-003  
  407.50  3.4759E-003  
  408.00  3.4706E-003  
  408.50  3.4583E-003  
  409.00  3.4382E-003  
  409.50  3.5011E-003  
  410.00  3.5677E-003  
  410.50  3.6143E-003  
  411.00  3.6495E-003  
  411.50  3.6980E-003  
  412.00  3.7179E-003  
  412.50  3.7953E-003  
  413.00  3.7747E-003  
  413.50  3.7766E-003  
  414.00  3.8109E-003  
  414.50  3.8107E-003  
  415.00  3.8986E-003  
  415.50  3.9768E-003  
  416.00  4.0805E-003  
  416.50  4.1640E-003  
  417.00  4.2351E-003  
  417.50  4.2457E-003  
  418.00  4.2396E-003  
  418.50  4.2355E-003  
  419.00  4.2608E-003  
  419.50  4.3281E-003  
  420.00  4.4293E-003  
  420.50  4.5007E-003  
  421.00  4.4881E-003  
  421.50  4.4574E-003  
  422.00  4.4505E-003  
  422.50  4.5170E-003  
  423.00  4.6116E-003  
  423.50  4.7070E-003  
  424.00  4.7152E-003  
  424.50  4.6386E-003  
  425.00  4.6365E-003  
  425.50  4.6995E-003  
  426.00  4.8211E-003  
  426.50  4.9484E-003  
  427.00  4.9725E-003  
  427.50  4.9758E-003  
  428.00  5.0454E-003  
  428.50  5.0937E-003  
  429.00  5.1970E-003  
  429.50  5.2437E-003  
  430.00  5.1959E-003  
  430.50  5.1681E-003  
  431.00  5.2075E-003  
  431.50  5.2544E-003  
  432.00  5.3359E-003  
  432.50  5.4032E-003  
  433.00  5.4692E-003  
  433.50  5.5564E-003  
  434.00  5.6449E-003  
  434.50  5.6685E-003  
  435.00  5.7127E-003  
  435.50  5.7720E-003  
  436.00  5.7519E-003  
  436.50  5.8064E-003  
  437.00  5.8817E-003  
  437.50  5.9780E-003  
  438.00  6.0725E-003  
  438.50  6.0566E-003  
  439.00  6.0294E-003  
  439.50  6.0570E-003  
  440.00  6.1106E-003  
  440.50  6.1574E-003  
  441.00  6.2193E-003  
  441.50  6.2625E-003  
  442.00  6.3028E-003  
  442.50  6.3582E-003  
  443.00  6.3834E-003  
  443.50  6.4010E-003  
  444.00  6.4439E-003  
  444.50  6.4953E-003  
  445.00  6.5657E-003  
  445.50  6.6390E-003  
  446.00  6.7065E-003  
  446.50  6.7676E-003  
  447.00  6.8011E-003  
  447.50  6.8549E-003  
  448.00  6.9116E-003  
  448.50  6.9905E-003  
  449.00  7.0800E-003  
  449.50  7.1900E-003  
  450.00  7.2595E-003  
  450.50  7.3721E-003  
  451.00  7.4239E-003  
  451.50  7.4653E-003  
  452.00  7.4769E-003  
  452.50  7.5003E-003  
  453.00  7.5329E-003  
  453.50  7.6041E-003  
  454.00  7.6641E-003  
  454.50  7.7320E-003  
  455.00  7.7601E-003  
  455.50  7.8114E-003  
  456.00  7.8521E-003  
  456.50  7.9273E-003  
  457.00  8.0053E-003  
  457.50  8.1174E-003  
  458.00  8.2097E-003  
  458.50  8.2437E-003  
  459.00  8.2482E-003  
  459.50  8.2901E-003  
  460.00  8.3625E-003  
  460.50  8.4321E-003  
  461.00  8.5188E-003  
  461.50  8.5469E-003  
  462.00  8.5791E-003  
  462.50  8.6419E-003  
  463.00  8.7160E-003  
  463.50  8.8148E-003  
  464.00  8.9552E-003  
  464.50  9.0042E-003  
  465.00  9.0547E-003  
  465.50  9.1129E-003  
  466.00  9.1408E-003  
  466.50  9.2539E-003  
  467.00  9.2863E-003  
  467.50  9.2876E-003  
  468.00  9.2905E-003  
  468.50  9.3316E-003  
  469.00  9.4343E-003  
  469.50  9.5437E-003  
  470.00  9.6222E-003  
  470.50  9.7093E-003  
  471.00  9.7810E-003  
  471.50  9.8525E-003  
  472.00  9.8801E-003  
  472.50  9.9256E-003  
  473.00  9.9531E-003  
  473.50  1.0035E-002  
  474.00  1.0126E-002  
  474.50  1.0277E-002  
  475.00  1.0389E-002  
  475.50  1.0478E-002  
  476.00  1.0478E-002  
  476.50  1.0518E-002  
  477.00  1.0556E-002  
  477.50  1.0577E-002  
  478.00  1.0598E-002  
  478.50  1.0633E-002  
  479.00  1.0707E-002  
  479.50  1.0868E-002  
  480.00  1.1016E-002  
  480.50  1.1117E-002  
  481.00  1.1186E-002  
  481.50  1.1196E-002  
  482.00  1.1258E-002  
  482.50  1.1340E-002  
  483.00  1.1392E-002  
  483.50  1.1484E-002  
  484.00  1.1536E-002  
  484.50  1.1617E-002  
  485.00  1.1669E-002  
  485.50  1.1706E-002  
  486.00  1.1769E-002  
  486.50  1.1840E-002  
  487.00  1.1888E-002  
  487.50  1.1919E-002  
  488.00  1.1981E-002  
  488.50  1.2102E-002  
  489.00  1.2262E-002  
  489.50  1.2358E-002  
  490.00  1.2406E-002  
  490.50  1.2415E-002  
  491.00  1.2465E-002  
  491.50  1.2546E-002  
  492.00  1.2661E-002  
  492.50  1.2769E-002  
  493.00  1.2862E-002  
  493.50  1.2944E-002  
  494.00  1.2981E-002  
  494.50  1.3070E-002  
  495.00  1.3179E-002  
  495.50  1.3326E-002  
  496.00  1.3444E-002  
  496.50  1.3526E-002  
  497.00  1.3589E-002  
  497.50  1.3715E-002  
  498.00  1.3835E-002  
  498.50  1.3948E-002  
  499.00  1.4028E-002  
  499.50  1.4128E-002  
  500.00  1.4229E-002  
  500.50  1.4350E-002  
  501.00  1.4415E-002  
  501.50  1.4474E-002  
  502.00  1.4566E-002  
  502.50  1.4633E-002  
  503.00  1.4719E-002  
  503.50  1.4828E-002  
  504.00  1.5001E-002  
  504.50  1.5180E-002  
  505.00  1.5320E-002  
  505.50  1.5391E-002  
  506.00  1.5460E-002  
  506.50  1.5543E-002  
  507.00  1.5701E-002  
  507.50  1.5868E-002  
  508.00  1.6010E-002  
  508.50  1.6110E-002  
  509.00  1.6154E-002  
  509.50  1.6217E-002  
  510.00  1.6302E-002  
  510.50  1.6396E-002  
  511.00  1.6546E-002  
  511.50  1.6665E-002  
  512.00  1.6809E-002  
  512.50  1.6918E-002  
  513.00  1.7089E-002  
  513.50  1.7300E-002  
  514.00  1.7485E-002  
  514.50  1.7668E-002  
  515.00  1.7789E-002  
  515.50  1.7917E-002  
  516.00  1.8008E-002  
  516.50  1.8088E-002  
  517.00  1.8158E-002  
  517.50  1.8233E-002  
  518.00  1.8356E-002  
  518.50  1.8510E-002  
  519.00  1.8669E-002  
  519.50  1.8751E-002  
  520.00  1.8843E-002  
  520.50  1.8974E-002  
  521.00  1.9149E-002  
  521.50  1.9301E-002  
  522.00  1.9462E-002  
  522.50  1.9585E-002  
  523.00  1.9752E-002  
  523.50  1.9897E-002  
  524.00  2.0050E-002  
  524.50  2.0158E-002  
  525.00  2.0249E-002  
  525.50  2.0355E-002  
  526.00  2.0482E-002  
  526.50  2.0684E-002  
  527.00  2.0872E-002  
  527.50  2.1047E-002  
  528.00  2.1202E-002  
  528.50  2.1361E-002  
  529.00  2.1493E-002  
  529.50  2.1616E-002  
  530.00  2.1711E-002  
  530.50  2.1867E-002  
  531.00  2.2080E-002  
  531.50  2.2224E-002  
  532.00  2.2340E-002  
  532.50  2.2447E-002  
  533.00  2.2616E-002  
  533.50  2.2777E-002  
  534.00  2.2937E-002  
  534.50  2.3051E-002  
  535.00  2.3178E-002  
  535.50  2.3315E-002  
  536.00  2.3470E-002  
  536.50  2.3621E-002  
  537.00  2.3775E-002  
  537.50  2.3898E-002  
  538.00  2.4065E-002  
  538.50  2.4168E-002  
  539.00  2.4250E-002  
  539.50  2.4288E-002  
  540.00  2.4380E-002  
  540.50  2.4531E-002  
  541.00  2.4727E-002  
  541.50  2.4915E-002  
  542.00  2.5115E-002  
  542.50  2.5297E-002  
  543.00  2.5482E-002  
  543.50  2.5637E-002  
  544.00  2.5813E-002  
  544.50  2.5936E-002  
  545.00  2.6053E-002  
  545.50  2.6160E-002  
  546.00  2.6279E-002  
  546.50  2.6440E-002  
  547.00  2.6552E-002  
  547.50  2.6636E-002  
  548.00  2.6755E-002  
  548.50  2.6885E-002  
  549.00  2.7055E-002  
  549.50  2.7229E-002  
  550.00  2.7421E-002  
  550.50  2.7632E-002  
  551.00  2.7779E-002  
  551.50  2.7938E-002  
  552.00  2.8046E-002  
  552.50  2.8209E-002  
  553.00  2.8358E-002  
  553.50  2.8496E-002  
  554.00  2.8651E-002  
  554.50  2.8833E-002  
  555.00  2.8988E-002  
  555.50  2.9122E-002  
  556.00  2.9246E-002  
  556.50  2.9391E-002  
  557.00  2.9616E-002  
  557.50  2.9838E-002  
  558.00  3.0040E-002  
  558.50  3.0159E-002  
  559.00  3.0255E-002  
  559.50  3.0381E-002  
  560.00  3.0537E-002  
  560.50  3.0672E-002  
  561.00  3.0754E-002  
  561.50  3.0812E-002  
  562.00  3.0873E-002  
  562.50  3.0975E-002  
  563.00  3.1120E-002  
  563.50  3.1257E-002  
  564.00  3.1399E-002  
  564.50  3.1490E-002  
  565.00  3.1567E-002  
  565.50  3.1678E-002  
  566.00  3.1783E-002  
  566.50  3.1961E-002  
  567.00  3.2068E-002  
  567.50  3.2166E-002  
  568.00  3.2242E-002  
  568.50  3.2417E-002  
  569.00  3.2629E-002  
  569.50  3.2852E-002  
  570.00  3.3032E-002  
  570.50  3.3134E-002  
  571.00  3.3213E-002  
  571.50  3.3274E-002  
  572.00  3.3353E-002  
  572.50  3.3444E-002  
  573.00  3.3561E-002  
  573.50  3.3680E-002  
  574.00  3.3826E-002  
  574.50  3.3952E-002  
  575.00  3.4080E-002  
  575.50  3.4220E-002  
  576.00  3.4429E-002  
  576.50  3.4617E-002  
  577.00  3.4840E-002  
  577.50  3.4982E-002  
  578.00  3.5060E-002  
  578.50  3.5152E-002  
  579.00  3.5206E-002  
  579.50  3.5345E-002  
  580.00  3.5453E-002  
  580.50  3.5598E-002  
  581.00  3.5727E-002  
  581.50  3.5927E-002  
  582.00  3.5986E-002  
  582.50  3.6057E-002  
  583.00  3.6102E-002  
  583.50  3.6274E-002  
  584.00  3.6411E-002  
  584.50  3.6559E-002  
  585.00  3.6621E-002  
  585.50  3.6752E-002  
  586.00  3.6859E-002  
  586.50  3.6983E-002  
  587.00  3.7113E-002  
  587.50  3.7263E-002  
  588.00  3.7362E-002  
  588.50  3.7510E-002  
  589.00  3.7632E-002  
  589.50  3.7795E-002  
  590.00  3.7985E-002  
  590.50  3.8033E-002  
  591.00  3.8068E-002  
  591.50  3.8111E-002  
  592.00  3.8261E-002  
  592.50  3.8455E-002  
  593.00  3.8589E-002  
  593.50  3.8616E-002  
  594.00  3.8669E-002  
  594.50  3.8696E-002  
  595.00  3.8826E-002  
  595.50  3.8925E-002  
  596.00  3.9085E-002  
  596.50  3.9244E-002  
  597.00  3.9405E-002  
  597.50  3.9530E-002  
  598.00  3.9625E-002  
  598.50  3.9744E-002  
  599.00  3.9864E-002  
  599.50  4.0009E-002  
  600.00  4.0098E-002  
  600.50  4.0164E-002  
  601.00  4.0259E-002  
  601.50  4.0346E-002  
  602.00  4.0423E-002  
  602.50  4.0430E-002  
  603.00  4.0395E-002  
  603.50  4.0404E-002  
  604.00  4.0389E-002  
  604.50  4.0503E-002  
  605.00  4.0633E-002  
  605.50  4.0830E-002  
  606.00  4.0980E-002  
  606.50  4.1162E-002  
  607.00  4.1371E-002  
  607.50  4.1550E-002  
  608.00  4.1654E-002  
  608.50  4.1716E-002  
  609.00  4.1789E-002  
  609.50  4.1905E-002  
  610.00  4.1963E-002  
  610.50  4.1951E-002  
  611.00  4.1972E-002  
  611.50  4.2023E-002  
  612.00  4.2086E-002  
  612.50  4.2140E-002  
  613.00  4.2194E-002  
  613.50  4.2350E-002  
  614.00  4.2513E-002  
  614.50  4.2750E-002  
  615.00  4.2959E-002  
  615.50  4.3107E-002  
  616.00  4.3170E-002  
  616.50  4.3165E-002  
  617.00  4.3141E-002  
  617.50  4.3126E-002  
  618.00  4.3319E-002  
  618.50  4.3444E-002  
  619.00  4.3580E-002  
  619.50  4.3546E-002  
  620.00  4.3600E-002  
  620.50  4.3622E-002  
  621.00  4.3703E-002  
  621.50  4.3791E-002  
  622.00  4.3952E-002  
  622.50  4.4044E-002  
  623.00  4.4125E-002  
  623.50  4.4167E-002  
  624.00  4.4261E-002  
  624.50  4.4276E-002  
  625.00  4.4342E-002  
  625.50  4.4414E-002  
  626.00  4.4508E-002  
  626.50  4.4588E-002  
  627.00  4.4686E-002  
  627.50  4.4821E-002  
  628.00  4.4996E-002  
  628.50  4.5046E-002  
  629.00  4.5123E-002  
  629.50  4.5121E-002  
  630.00  4.5326E-002  
  630.50  4.5450E-002  
  631.00  4.5571E-002  
  631.50  4.5540E-002  
  632.00  4.5493E-002  
  632.50  4.5563E-002  
  633.00  4.5672E-002  
  633.50  4.5798E-002  
  634.00  4.5906E-002  
  634.50  4.5979E-002  
  635.00  4.6090E-002  
  635.50  4.6128E-002  
  636.00  4.6235E-002  
  636.50  4.6371E-002  
  637.00  4.6559E-002  
  637.50  4.6703E-002  
  638.00  4.6722E-002  
  638.50  4.6771E-002  
  639.00  4.6796E-002  
  639.50  4.6896E-002  
  640.00  4.7025E-002  
  640.50  4.7143E-002  
  641.00  4.7233E-002  
  641.50  4.7293E-002  
  642.00  4.7286E-002  
  642.50  4.7348E-002  
  643.00  4.7431E-002  
  643.50  4.7574E-002  
  644.00  4.7657E-002  
  644.50  4.7767E-002  
  645.00  4.7902E-002  
  645.50  4.8009E-002  
  646.00  4.8065E-002  
  646.50  4.8137E-002  
  647.00  4.8334E-002  
  647.50  4.8423E-002  
  648.00  4.8416E-002  
  648.50  4.8382E-002  
  649.00  4.8406E-002  
  649.50  4.8552E-002  
  650.00  4.8665E-002  
  650.50  4.8730E-002  
  651.00  4.8657E-002  
  651.50  4.8621E-002  
  652.00  4.8630E-002  
  652.50  4.8763E-002  
  653.00  4.8799E-002  
  653.50  4.8827E-002  
  654.00  4.8841E-002  
  654.50  4.8943E-002  
  655.00  4.9106E-002  
  655.50  4.9220E-002  
  656.00  4.9371E-002  
  656.50  4.9455E-002  
  657.00  4.9485E-002  
  657.50  4.9504E-002  
  658.00  4.9499E-002  
  658.50  4.9557E-002  
  659.00  4.9617E-002  
  659.50  4.9861E-002  
  660.00  4.9957E-002  
  660.50  5.0052E-002  
  661.00  5.0051E-002  
  661.50  5.0216E-002  
  662.00  5.0235E-002  
  662.50  5.0160E-002  
  663.00  5.0150E-002  
  663.50  5.0218E-002  
  664.00  5.0329E-002  
  664.50  5.0254E-002  
  665.00  5.0176E-002  
  665.50  5.0262E-002  
  666.00  5.0486E-002  
  666.50  5.0773E-002  
  667.00  5.0941E-002  
  667.50  5.1029E-002  
  668.00  5.1031E-002  
  668.50  5.1062E-002  
  669.00  5.0982E-002  
  669.50  5.0972E-002  
  670.00  5.0860E-002  
  670.50  5.0874E-002  
  671.00  5.0950E-002  
  671.50  5.1046E-002  
  672.00  5.1117E-002  
  672.50  5.1210E-002  
  673.00  5.1365E-002  
  673.50  5.1533E-002  
  674.00  5.1664E-002  
  674.50  5.1708E-002  
  675.00  5.1777E-002  
  675.50  5.1844E-002  
  676.00  5.1955E-002  
  676.50  5.2071E-002  
  677.00  5.2057E-002  
  677.50  5.2106E-002  
  678.00  5.2105E-002  
  678.50  5.2088E-002  
  679.00  5.2136E-002  
  679.50  5.2170E-002  
  680.00  5.2298E-002  
