
# From lspdd.org
# 
# Name: DEL Philips BR30 Domestique
# Indice spectral Valeur 
# MSI 0.25 
# SLI 0.44 
# IPI 0.66 
# Pourcentage de bleu 16.0 
# Caractéristique Valeur 
# CCT calculée (K) 2620 
# CCT du fabricant (K) 2700 
# Tension (V) 120 
# Puissance (W) 13.0 
# Efficacité lumineuse (Lum/W) 56.2 
#
# Image: '/app/system/img_2s/2591/medium_image2.JPG?1413486533'
# Image: '/app/system/img_1s/2591/medium_image1.JPG?1413486537'
# 

  273.00  0.0000E+000  
  273.50  0.0000E+000  
  274.00  0.0000E+000  
  274.50  0.0000E+000  
  275.00  0.0000E+000  
  275.50  0.0000E+000  
  276.00  0.0000E+000  
  276.50  0.0000E+000  
  277.00  0.0000E+000  
  277.50  0.0000E+000  
  278.00  0.0000E+000  
  278.50  0.0000E+000  
  279.00  0.0000E+000  
  279.50  0.0000E+000  
  280.00  0.0000E+000  
  280.50  0.0000E+000  
  281.00  0.0000E+000  
  281.50  0.0000E+000  
  282.00  0.0000E+000  
  282.50  0.0000E+000  
  283.00  0.0000E+000  
  283.50  0.0000E+000  
  284.00  0.0000E+000  
  284.50  0.0000E+000  
  285.00  0.0000E+000  
  285.50  0.0000E+000  
  286.00  0.0000E+000  
  286.50  0.0000E+000  
  287.00  0.0000E+000  
  287.50  0.0000E+000  
  288.00  0.0000E+000  
  288.50  0.0000E+000  
  289.00  0.0000E+000  
  289.50  0.0000E+000  
  290.00  0.0000E+000  
  290.50  0.0000E+000  
  291.00  0.0000E+000  
  291.50  0.0000E+000  
  292.00  0.0000E+000  
  292.50  0.0000E+000  
  293.00  0.0000E+000  
  293.50  0.0000E+000  
  294.00  0.0000E+000  
  294.50  0.0000E+000  
  295.00  0.0000E+000  
  295.50  0.0000E+000  
  296.00  0.0000E+000  
  296.50  0.0000E+000  
  297.00  0.0000E+000  
  297.50  0.0000E+000  
  298.00  0.0000E+000  
  298.50  0.0000E+000  
  299.00  0.0000E+000  
  299.50  0.0000E+000  
  300.00  0.0000E+000  
  300.50  0.0000E+000  
  301.00  0.0000E+000  
  301.50  0.0000E+000  
  302.00  0.0000E+000  
  302.50  0.0000E+000  
  303.00  0.0000E+000  
  303.50  0.0000E+000  
  304.00  0.0000E+000  
  304.50  0.0000E+000  
  305.00  0.0000E+000  
  305.50  0.0000E+000  
  306.00  0.0000E+000  
  306.50  0.0000E+000  
  307.00  0.0000E+000  
  307.50  0.0000E+000  
  308.00  0.0000E+000  
  308.50  0.0000E+000  
  309.00  0.0000E+000  
  309.50  0.0000E+000  
  310.00  0.0000E+000  
  310.50  0.0000E+000  
  311.00  0.0000E+000  
  311.50  0.0000E+000  
  312.00  0.0000E+000  
  312.50  0.0000E+000  
  313.00  0.0000E+000  
  313.50  0.0000E+000  
  314.00  0.0000E+000  
  314.50  0.0000E+000  
  315.00  0.0000E+000  
  315.50  0.0000E+000  
  316.00  0.0000E+000  
  316.50  0.0000E+000  
  317.00  0.0000E+000  
  317.50  0.0000E+000  
  318.00  0.0000E+000  
  318.50  0.0000E+000  
  319.00  0.0000E+000  
  319.50  0.0000E+000  
  320.00  0.0000E+000  
  320.50  0.0000E+000  
  321.00  0.0000E+000  
  321.50  0.0000E+000  
  322.00  1.9448E-005  
  322.50  0.0000E+000  
  323.00  0.0000E+000  
  323.50  0.0000E+000  
  324.00  0.0000E+000  
  324.50  0.0000E+000  
  325.00  0.0000E+000  
  325.50  0.0000E+000  
  326.00  0.0000E+000  
  326.50  0.0000E+000  
  327.00  0.0000E+000  
  327.50  0.0000E+000  
  328.00  0.0000E+000  
  328.50  0.0000E+000  
  329.00  0.0000E+000  
  329.50  0.0000E+000  
  330.00  0.0000E+000  
  330.50  0.0000E+000  
  331.00  0.0000E+000  
  331.50  0.0000E+000  
  332.00  0.0000E+000  
  332.50  0.0000E+000  
  333.00  0.0000E+000  
  333.50  0.0000E+000  
  334.00  0.0000E+000  
  334.50  0.0000E+000  
  335.00  0.0000E+000  
  335.50  0.0000E+000  
  336.00  0.0000E+000  
  336.50  0.0000E+000  
  337.00  0.0000E+000  
  337.50  0.0000E+000  
  338.00  0.0000E+000  
  338.50  0.0000E+000  
  339.00  0.0000E+000  
  339.50  0.0000E+000  
  340.00  0.0000E+000  
  340.50  0.0000E+000  
  341.00  0.0000E+000  
  341.50  0.0000E+000  
  342.00  0.0000E+000  
  342.50  0.0000E+000  
  343.00  0.0000E+000  
  343.50  0.0000E+000  
  344.00  0.0000E+000  
  344.50  0.0000E+000  
  345.00  0.0000E+000  
  345.50  0.0000E+000  
  346.00  0.0000E+000  
  346.50  0.0000E+000  
  347.00  0.0000E+000  
  347.50  0.0000E+000  
  348.00  0.0000E+000  
  348.50  0.0000E+000  
  349.00  0.0000E+000  
  349.50  0.0000E+000  
  350.00  0.0000E+000  
  350.50  0.0000E+000  
  351.00  0.0000E+000  
  351.50  0.0000E+000  
  352.00  0.0000E+000  
  352.50  0.0000E+000  
  353.00  0.0000E+000  
  353.50  0.0000E+000  
  354.00  0.0000E+000  
  354.50  0.0000E+000  
  355.00  0.0000E+000  
  355.50  0.0000E+000  
  356.00  0.0000E+000  
  356.50  0.0000E+000  
  357.00  0.0000E+000  
  357.50  0.0000E+000  
  358.00  0.0000E+000  
  358.50  0.0000E+000  
  359.00  0.0000E+000  
  359.50  0.0000E+000  
  360.00  0.0000E+000  
  360.50  0.0000E+000  
  361.00  0.0000E+000  
  361.50  0.0000E+000  
  362.00  0.0000E+000  
  362.50  0.0000E+000  
  363.00  0.0000E+000  
  363.50  0.0000E+000  
  364.00  0.0000E+000  
  364.50  0.0000E+000  
  365.00  0.0000E+000  
  365.50  0.0000E+000  
  366.00  0.0000E+000  
  366.50  0.0000E+000  
  367.00  0.0000E+000  
  367.50  0.0000E+000  
  368.00  0.0000E+000  
  368.50  0.0000E+000  
  369.00  0.0000E+000  
  369.50  0.0000E+000  
  370.00  0.0000E+000  
  370.50  0.0000E+000  
  371.00  0.0000E+000  
  371.50  0.0000E+000  
  372.00  0.0000E+000  
  372.50  0.0000E+000  
  373.00  0.0000E+000  
  373.50  0.0000E+000  
  374.00  0.0000E+000  
  374.50  0.0000E+000  
  375.00  0.0000E+000  
  375.50  0.0000E+000  
  376.00  0.0000E+000  
  376.50  0.0000E+000  
  377.00  0.0000E+000  
  377.50  0.0000E+000  
  378.00  0.0000E+000  
  378.50  0.0000E+000  
  379.00  0.0000E+000  
  379.50  0.0000E+000  
  380.00  0.0000E+000  
  380.50  0.0000E+000  
  381.00  0.0000E+000  
  381.50  0.0000E+000  
  382.00  0.0000E+000  
  382.50  1.6799E-006  
  383.00  5.6480E-006  
  383.50  0.0000E+000  
  384.00  0.0000E+000  
  384.50  0.0000E+000  
  385.00  0.0000E+000  
  385.50  0.0000E+000  
  386.00  0.0000E+000  
  386.50  0.0000E+000  
  387.00  0.0000E+000  
  387.50  0.0000E+000  
  388.00  0.0000E+000  
  388.50  0.0000E+000  
  389.00  0.0000E+000  
  389.50  0.0000E+000  
  390.00  1.8873E-005  
  390.50  3.0883E-005  
  391.00  2.3006E-005  
  391.50  2.3290E-005  
  392.00  2.6097E-005  
  392.50  8.9585E-006  
  393.00  0.0000E+000  
  393.50  0.0000E+000  
  394.00  0.0000E+000  
  394.50  0.0000E+000  
  395.00  0.0000E+000  
  395.50  0.0000E+000  
  396.00  0.0000E+000  
  396.50  0.0000E+000  
  397.00  0.0000E+000  
  397.50  0.0000E+000  
  398.00  0.0000E+000  
  398.50  0.0000E+000  
  399.00  0.0000E+000  
  399.50  0.0000E+000  
  400.00  0.0000E+000  
  400.50  0.0000E+000  
  401.00  0.0000E+000  
  401.50  0.0000E+000  
  402.00  0.0000E+000  
  402.50  5.2257E-005  
  403.00  8.7466E-005  
  403.50  9.4916E-005  
  404.00  1.1007E-004  
  404.50  1.1982E-004  
  405.00  1.3155E-004  
  405.50  1.6506E-004  
  406.00  1.5782E-004  
  406.50  1.8377E-004  
  407.00  1.7465E-004  
  407.50  1.6802E-004  
  408.00  1.5665E-004  
  408.50  1.5227E-004  
  409.00  1.8033E-004  
  409.50  2.2701E-004  
  410.00  2.6139E-004  
  410.50  3.2916E-004  
  411.00  3.9016E-004  
  411.50  4.7347E-004  
  412.00  5.8342E-004  
  412.50  6.3793E-004  
  413.00  7.4013E-004  
  413.50  8.5534E-004  
  414.00  9.3863E-004  
  414.50  1.0155E-003  
  415.00  1.0166E-003  
  415.50  1.0307E-003  
  416.00  1.1423E-003  
  416.50  1.2927E-003  
  417.00  1.4952E-003  
  417.50  1.6566E-003  
  418.00  1.7817E-003  
  418.50  1.8571E-003  
  419.00  1.9403E-003  
  419.50  2.1050E-003  
  420.00  2.2983E-003  
  420.50  2.5045E-003  
  421.00  2.6298E-003  
  421.50  2.7255E-003  
  422.00  2.8345E-003  
  422.50  2.9792E-003  
  423.00  3.1983E-003  
  423.50  3.3982E-003  
  424.00  3.5967E-003  
  424.50  3.7712E-003  
  425.00  3.9364E-003  
  425.50  4.1116E-003  
  426.00  4.2653E-003  
  426.50  4.4018E-003  
  427.00  4.5355E-003  
  427.50  4.6914E-003  
  428.00  4.9206E-003  
  428.50  5.1346E-003  
  429.00  5.3805E-003  
  429.50  5.5894E-003  
  430.00  5.7549E-003  
  430.50  5.9347E-003  
  431.00  6.0761E-003  
  431.50  6.2433E-003  
  432.00  6.4526E-003  
  432.50  6.6637E-003  
  433.00  6.8678E-003  
  433.50  6.9979E-003  
  434.00  7.1340E-003  
  434.50  7.2830E-003  
  435.00  7.4503E-003  
  435.50  7.6176E-003  
  436.00  7.7507E-003  
  436.50  7.8948E-003  
  437.00  8.1409E-003  
  437.50  8.3198E-003  
  438.00  8.4506E-003  
  438.50  8.5567E-003  
  439.00  8.7052E-003  
  439.50  8.9111E-003  
  440.00  9.1799E-003  
  440.50  9.3782E-003  
  441.00  9.5355E-003  
  441.50  9.6982E-003  
  442.00  9.8950E-003  
  442.50  1.0053E-002  
  443.00  1.0189E-002  
  443.50  1.0265E-002  
  444.00  1.0346E-002  
  444.50  1.0404E-002  
  445.00  1.0467E-002  
  445.50  1.0490E-002  
  446.00  1.0545E-002  
  446.50  1.0583E-002  
  447.00  1.0606E-002  
  447.50  1.0605E-002  
  448.00  1.0518E-002  
  448.50  1.0336E-002  
  449.00  1.0115E-002  
  449.50  9.9005E-003  
  450.00  9.7462E-003  
  450.50  9.6299E-003  
  451.00  9.4026E-003  
  451.50  9.1681E-003  
  452.00  8.8965E-003  
  452.50  8.6635E-003  
  453.00  8.3982E-003  
  453.50  8.0406E-003  
  454.00  7.6785E-003  
  454.50  7.3250E-003  
  455.00  7.1186E-003  
  455.50  6.9103E-003  
  456.00  6.6846E-003  
  456.50  6.4565E-003  
  457.00  6.2686E-003  
  457.50  6.0862E-003  
  458.00  5.9178E-003  
  458.50  5.7359E-003  
  459.00  5.5837E-003  
  459.50  5.4984E-003  
  460.00  5.4275E-003  
  460.50  5.3365E-003  
  461.00  5.2888E-003  
  461.50  5.1994E-003  
  462.00  5.1170E-003  
  462.50  5.0186E-003  
  463.00  4.9196E-003  
  463.50  4.8600E-003  
  464.00  4.7620E-003  
  464.50  4.6621E-003  
  465.00  4.5570E-003  
  465.50  4.5023E-003  
  466.00  4.4758E-003  
  466.50  4.4604E-003  
  467.00  4.4233E-003  
  467.50  4.3910E-003  
  468.00  4.3633E-003  
  468.50  4.2881E-003  
  469.00  4.2246E-003  
  469.50  4.1399E-003  
  470.00  4.0897E-003  
  470.50  4.0584E-003  
  471.00  4.0207E-003  
  471.50  3.9697E-003  
  472.00  3.9236E-003  
  472.50  3.9257E-003  
  473.00  3.9435E-003  
  473.50  3.9988E-003  
  474.00  4.0315E-003  
  474.50  4.0093E-003  
  475.00  3.9608E-003  
  475.50  3.9635E-003  
  476.00  3.9738E-003  
  476.50  4.0467E-003  
  477.00  4.0802E-003  
  477.50  4.1143E-003  
  478.00  4.1530E-003  
  478.50  4.2190E-003  
  479.00  4.2893E-003  
  479.50  4.3895E-003  
  480.00  4.4535E-003  
  480.50  4.4858E-003  
  481.00  4.5318E-003  
  481.50  4.6220E-003  
  482.00  4.7275E-003  
  482.50  4.8228E-003  
  483.00  4.8675E-003  
  483.50  4.9199E-003  
  484.00  4.9890E-003  
  484.50  5.0311E-003  
  485.00  5.0916E-003  
  485.50  5.1812E-003  
  486.00  5.2988E-003  
  486.50  5.4180E-003  
  487.00  5.5032E-003  
  487.50  5.6053E-003  
  488.00  5.7146E-003  
  488.50  5.7954E-003  
  489.00  5.8595E-003  
  489.50  5.9480E-003  
  490.00  6.0663E-003  
  490.50  6.2018E-003  
  491.00  6.3208E-003  
  491.50  6.4306E-003  
  492.00  6.5470E-003  
  492.50  6.6916E-003  
  493.00  6.8198E-003  
  493.50  6.9495E-003  
  494.00  7.0593E-003  
  494.50  7.1673E-003  
  495.00  7.3068E-003  
  495.50  7.4288E-003  
  496.00  7.5557E-003  
  496.50  7.6527E-003  
  497.00  7.7534E-003  
  497.50  7.9168E-003  
  498.00  8.1038E-003  
  498.50  8.2512E-003  
  499.00  8.3695E-003  
  499.50  8.4531E-003  
  500.00  8.5932E-003  
  500.50  8.7384E-003  
  501.00  8.8351E-003  
  501.50  8.9312E-003  
  502.00  9.0348E-003  
  502.50  9.1610E-003  
  503.00  9.3161E-003  
  503.50  9.4661E-003  
  504.00  9.6134E-003  
  504.50  9.7528E-003  
  505.00  9.8514E-003  
  505.50  9.9518E-003  
  506.00  1.0076E-002  
  506.50  1.0174E-002  
  507.00  1.0283E-002  
  507.50  1.0394E-002  
  508.00  1.0506E-002  
  508.50  1.0643E-002  
  509.00  1.0802E-002  
  509.50  1.0955E-002  
  510.00  1.1120E-002  
  510.50  1.1240E-002  
  511.00  1.1347E-002  
  511.50  1.1451E-002  
  512.00  1.1565E-002  
  512.50  1.1694E-002  
  513.00  1.1841E-002  
  513.50  1.1991E-002  
  514.00  1.2139E-002  
  514.50  1.2260E-002  
  515.00  1.2377E-002  
  515.50  1.2499E-002  
  516.00  1.2620E-002  
  516.50  1.2712E-002  
  517.00  1.2806E-002  
  517.50  1.2935E-002  
  518.00  1.3122E-002  
  518.50  1.3308E-002  
  519.00  1.3493E-002  
  519.50  1.3662E-002  
  520.00  1.3783E-002  
  520.50  1.3885E-002  
  521.00  1.3960E-002  
  521.50  1.4102E-002  
  522.00  1.4255E-002  
  522.50  1.4383E-002  
  523.00  1.4488E-002  
  523.50  1.4584E-002  
  524.00  1.4708E-002  
  524.50  1.4845E-002  
  525.00  1.4938E-002  
  525.50  1.5076E-002  
  526.00  1.5214E-002  
  526.50  1.5399E-002  
  527.00  1.5593E-002  
  527.50  1.5764E-002  
  528.00  1.5923E-002  
  528.50  1.6049E-002  
  529.00  1.6187E-002  
  529.50  1.6323E-002  
  530.00  1.6439E-002  
  530.50  1.6576E-002  
  531.00  1.6720E-002  
  531.50  1.6867E-002  
  532.00  1.7044E-002  
  532.50  1.7192E-002  
  533.00  1.7349E-002  
  533.50  1.7510E-002  
  534.00  1.7643E-002  
  534.50  1.7785E-002  
  535.00  1.7919E-002  
  535.50  1.8067E-002  
  536.00  1.8226E-002  
  536.50  1.8356E-002  
  537.00  1.8550E-002  
  537.50  1.8740E-002  
  538.00  1.8958E-002  
  538.50  1.9105E-002  
  539.00  1.9278E-002  
  539.50  1.9458E-002  
  540.00  1.9646E-002  
  540.50  1.9837E-002  
  541.00  2.0014E-002  
  541.50  2.0186E-002  
  542.00  2.0361E-002  
  542.50  2.0497E-002  
  543.00  2.0656E-002  
  543.50  2.0808E-002  
  544.00  2.0998E-002  
  544.50  2.1192E-002  
  545.00  2.1379E-002  
  545.50  2.1561E-002  
  546.00  2.1762E-002  
  546.50  2.2006E-002  
  547.00  2.2210E-002  
  547.50  2.2329E-002  
  548.00  2.2423E-002  
  548.50  2.2560E-002  
  549.00  2.2735E-002  
  549.50  2.2930E-002  
  550.00  2.3061E-002  
  550.50  2.3175E-002  
  551.00  2.3364E-002  
  551.50  2.3589E-002  
  552.00  2.3834E-002  
  552.50  2.4031E-002  
  553.00  2.4199E-002  
  553.50  2.4422E-002  
  554.00  2.4686E-002  
  554.50  2.4926E-002  
  555.00  2.5156E-002  
  555.50  2.5292E-002  
  556.00  2.5432E-002  
  556.50  2.5560E-002  
  557.00  2.5733E-002  
  557.50  2.5940E-002  
  558.00  2.6145E-002  
  558.50  2.6320E-002  
  559.00  2.6505E-002  
  559.50  2.6736E-002  
  560.00  2.6994E-002  
  560.50  2.7173E-002  
  561.00  2.7337E-002  
  561.50  2.7479E-002  
  562.00  2.7667E-002  
  562.50  2.7872E-002  
  563.00  2.8050E-002  
  563.50  2.8294E-002  
  564.00  2.8501E-002  
  564.50  2.8692E-002  
  565.00  2.8878E-002  
  565.50  2.9115E-002  
  566.00  2.9340E-002  
  566.50  2.9469E-002  
  567.00  2.9525E-002  
  567.50  2.9633E-002  
  568.00  2.9844E-002  
  568.50  3.0111E-002  
  569.00  3.0413E-002  
  569.50  3.0664E-002  
  570.00  3.0908E-002  
  570.50  3.1032E-002  
  571.00  3.1171E-002  
  571.50  3.1311E-002  
  572.00  3.1512E-002  
  572.50  3.1696E-002  
  573.00  3.1877E-002  
  573.50  3.2094E-002  
  574.00  3.2320E-002  
  574.50  3.2509E-002  
  575.00  3.2695E-002  
  575.50  3.2866E-002  
  576.00  3.3066E-002  
  576.50  3.3204E-002  
  577.00  3.3316E-002  
  577.50  3.3444E-002  
  578.00  3.3592E-002  
  578.50  3.3796E-002  
  579.00  3.4065E-002  
  579.50  3.4266E-002  
  580.00  3.4442E-002  
  580.50  3.4589E-002  
  581.00  3.4798E-002  
  581.50  3.5012E-002  
  582.00  3.5164E-002  
  582.50  3.5302E-002  
  583.00  3.5463E-002  
  583.50  3.5706E-002  
  584.00  3.5956E-002  
  584.50  3.6214E-002  
  585.00  3.6339E-002  
  585.50  3.6451E-002  
  586.00  3.6524E-002  
  586.50  3.6664E-002  
  587.00  3.6815E-002  
  587.50  3.6923E-002  
  588.00  3.7052E-002  
  588.50  3.7160E-002  
  589.00  3.7290E-002  
  589.50  3.7482E-002  
  590.00  3.7658E-002  
  590.50  3.7871E-002  
  591.00  3.7983E-002  
  591.50  3.8154E-002  
  592.00  3.8238E-002  
  592.50  3.8350E-002  
  593.00  3.8438E-002  
  593.50  3.8555E-002  
  594.00  3.8727E-002  
  594.50  3.8828E-002  
  595.00  3.8907E-002  
  595.50  3.8900E-002  
  596.00  3.8936E-002  
  596.50  3.9006E-002  
  597.00  3.9148E-002  
  597.50  3.9288E-002  
  598.00  3.9343E-002  
  598.50  3.9357E-002  
  599.00  3.9358E-002  
  599.50  3.9417E-002  
  600.00  3.9493E-002  
  600.50  3.9539E-002  
  601.00  3.9613E-002  
  601.50  3.9653E-002  
  602.00  3.9710E-002  
  602.50  3.9699E-002  
  603.00  3.9626E-002  
  603.50  3.9576E-002  
  604.00  3.9565E-002  
  604.50  3.9536E-002  
  605.00  3.9550E-002  
  605.50  3.9525E-002  
  606.00  3.9599E-002  
  606.50  3.9648E-002  
  607.00  3.9673E-002  
  607.50  3.9673E-002  
  608.00  3.9669E-002  
  608.50  3.9691E-002  
  609.00  3.9728E-002  
  609.50  3.9714E-002  
  610.00  3.9687E-002  
  610.50  3.9572E-002  
  611.00  3.9538E-002  
  611.50  3.9483E-002  
  612.00  3.9435E-002  
  612.50  3.9330E-002  
  613.00  3.9219E-002  
  613.50  3.9156E-002  
  614.00  3.9109E-002  
  614.50  3.9001E-002  
  615.00  3.8918E-002  
  615.50  3.8794E-002  
  616.00  3.8708E-002  
  616.50  3.8613E-002  
  617.00  3.8535E-002  
  617.50  3.8428E-002  
  618.00  3.8293E-002  
  618.50  3.8214E-002  
  619.00  3.8128E-002  
  619.50  3.7960E-002  
  620.00  3.7733E-002  
  620.50  3.7570E-002  
  621.00  3.7515E-002  
  621.50  3.7474E-002  
  622.00  3.7288E-002  
  622.50  3.7078E-002  
  623.00  3.6857E-002  
  623.50  3.6672E-002  
  624.00  3.6503E-002  
  624.50  3.6352E-002  
  625.00  3.6240E-002  
  625.50  3.6100E-002  
  626.00  3.5937E-002  
  626.50  3.5741E-002  
  627.00  3.5581E-002  
  627.50  3.5404E-002  
  628.00  3.5200E-002  
  628.50  3.4975E-002  
  629.00  3.4872E-002  
  629.50  3.4794E-002  
  630.00  3.4577E-002  
  630.50  3.4295E-002  
  631.00  3.4086E-002  
  631.50  3.4023E-002  
  632.00  3.3849E-002  
  632.50  3.3569E-002  
  633.00  3.3347E-002  
  633.50  3.3254E-002  
  634.00  3.3106E-002  
  634.50  3.2899E-002  
  635.00  3.2629E-002  
  635.50  3.2305E-002  
  636.00  3.2008E-002  
  636.50  3.1757E-002  
  637.00  3.1624E-002  
  637.50  3.1405E-002  
  638.00  3.1132E-002  
  638.50  3.0906E-002  
  639.00  3.0730E-002  
  639.50  3.0532E-002  
  640.00  3.0290E-002  
  640.50  3.0038E-002  
  641.00  2.9831E-002  
  641.50  2.9582E-002  
  642.00  2.9338E-002  
  642.50  2.9088E-002  
  643.00  2.8869E-002  
  643.50  2.8671E-002  
  644.00  2.8378E-002  
  644.50  2.8068E-002  
  645.00  2.7797E-002  
  645.50  2.7642E-002  
  646.00  2.7519E-002  
  646.50  2.7324E-002  
  647.00  2.7124E-002  
  647.50  2.6876E-002  
  648.00  2.6518E-002  
  648.50  2.6118E-002  
  649.00  2.5832E-002  
  649.50  2.5691E-002  
  650.00  2.5563E-002  
  650.50  2.5314E-002  
  651.00  2.5038E-002  
  651.50  2.4817E-002  
  652.00  2.4582E-002  
  652.50  2.4372E-002  
  653.00  2.4084E-002  
  653.50  2.3791E-002  
  654.00  2.3520E-002  
  654.50  2.3246E-002  
  655.00  2.3042E-002  
  655.50  2.2715E-002  
  656.00  2.2501E-002  
  656.50  2.2272E-002  
  657.00  2.1997E-002  
  657.50  2.1649E-002  
  658.00  2.1430E-002  
  658.50  2.1417E-002  
  659.00  2.1406E-002  
  659.50  2.1165E-002  
  660.00  2.0803E-002  
  660.50  2.0502E-002  
  661.00  2.0320E-002  
  661.50  2.0171E-002  
  662.00  1.9890E-002  
  662.50  1.9576E-002  
  663.00  1.9282E-002  
  663.50  1.9143E-002  
  664.00  1.8995E-002  
  664.50  1.8832E-002  
  665.00  1.8563E-002  
  665.50  1.8255E-002  
  666.00  1.7971E-002  
  666.50  1.7803E-002  
  667.00  1.7679E-002  
  667.50  1.7528E-002  
  668.00  1.7283E-002  
  668.50  1.7120E-002  
  669.00  1.6965E-002  
  669.50  1.6770E-002  
  670.00  1.6522E-002  
  670.50  1.6260E-002  
  671.00  1.6020E-002  
  671.50  1.5739E-002  
  672.00  1.5529E-002  
  672.50  1.5391E-002  
  673.00  1.5257E-002  
  673.50  1.5103E-002  
  674.00  1.4864E-002  
  674.50  1.4681E-002  
  675.00  1.4495E-002  
  675.50  1.4370E-002  
  676.00  1.4244E-002  
  676.50  1.4033E-002  
  677.00  1.3785E-002  
  677.50  1.3518E-002  
  678.00  1.3312E-002  
  678.50  1.3244E-002  
  679.00  1.3138E-002  
  679.50  1.3030E-002  
  680.00  1.2810E-002  
