
# From lspdd.org
# 
# Name: DEL Globe A19 Domestique
# Indice spectral Valeur 
# MSI 0.60 
# SLI 0.75 
# IPI 0.69 
# Pourcentage de bleu 37.3 
# Caractéristique Valeur 
# CCT calculée (K) 5060 
# CCT du fabricant (K) 5000 
# Tension (V) 120 
# Puissance (W) 4.0 
# Efficacité lumineuse (Lum/W) 50.0 
#
# Image: '/app/system/img_1s/2592/medium_image1.jpg?1413486541'
# 

  273.00  0.0000E+000  
  273.50  0.0000E+000  
  274.00  0.0000E+000  
  274.50  0.0000E+000  
  275.00  0.0000E+000  
  275.50  0.0000E+000  
  276.00  0.0000E+000  
  276.50  0.0000E+000  
  277.00  0.0000E+000  
  277.50  0.0000E+000  
  278.00  0.0000E+000  
  278.50  0.0000E+000  
  279.00  0.0000E+000  
  279.50  0.0000E+000  
  280.00  0.0000E+000  
  280.50  0.0000E+000  
  281.00  0.0000E+000  
  281.50  0.0000E+000  
  282.00  0.0000E+000  
  282.50  0.0000E+000  
  283.00  0.0000E+000  
  283.50  0.0000E+000  
  284.00  0.0000E+000  
  284.50  0.0000E+000  
  285.00  0.0000E+000  
  285.50  0.0000E+000  
  286.00  0.0000E+000  
  286.50  0.0000E+000  
  287.00  0.0000E+000  
  287.50  0.0000E+000  
  288.00  0.0000E+000  
  288.50  0.0000E+000  
  289.00  0.0000E+000  
  289.50  0.0000E+000  
  290.00  0.0000E+000  
  290.50  0.0000E+000  
  291.00  0.0000E+000  
  291.50  0.0000E+000  
  292.00  0.0000E+000  
  292.50  0.0000E+000  
  293.00  0.0000E+000  
  293.50  0.0000E+000  
  294.00  0.0000E+000  
  294.50  0.0000E+000  
  295.00  0.0000E+000  
  295.50  0.0000E+000  
  296.00  0.0000E+000  
  296.50  0.0000E+000  
  297.00  0.0000E+000  
  297.50  0.0000E+000  
  298.00  0.0000E+000  
  298.50  0.0000E+000  
  299.00  0.0000E+000  
  299.50  0.0000E+000  
  300.00  2.2834E-005  
  300.50  9.4998E-005  
  301.00  1.4258E-004  
  301.50  1.0864E-004  
  302.00  1.3236E-004  
  302.50  1.3293E-004  
  303.00  1.0366E-004  
  303.50  1.3485E-004  
  304.00  1.1658E-004  
  304.50  7.6669E-005  
  305.00  8.9224E-005  
  305.50  1.0770E-004  
  306.00  1.4266E-004  
  306.50  1.9079E-004  
  307.00  1.6154E-004  
  307.50  1.2349E-004  
  308.00  4.9627E-005  
  308.50  5.8785E-006  
  309.00  2.0464E-005  
  309.50  3.1295E-005  
  310.00  9.1481E-005  
  310.50  1.4650E-004  
  311.00  1.8301E-004  
  311.50  2.6563E-004  
  312.00  2.9875E-004  
  312.50  3.0290E-004  
  313.00  3.3998E-004  
  313.50  3.0053E-004  
  314.00  2.5975E-004  
  314.50  1.9619E-004  
  315.00  9.5444E-005  
  315.50  3.3103E-005  
  316.00  2.2893E-005  
  316.50  3.2949E-005  
  317.00  4.5120E-005  
  317.50  1.1041E-004  
  318.00  1.9266E-004  
  318.50  2.5764E-004  
  319.00  2.9626E-004  
  319.50  2.8152E-004  
  320.00  2.7076E-004  
  320.50  2.2506E-004  
  321.00  1.9322E-004  
  321.50  1.4647E-004  
  322.00  1.0623E-004  
  322.50  1.5515E-004  
  323.00  2.0280E-004  
  323.50  2.5022E-004  
  324.00  2.1912E-004  
  324.50  1.7150E-004  
  325.00  1.4262E-004  
  325.50  1.3952E-004  
  326.00  1.5961E-004  
  326.50  1.7922E-004  
  327.00  1.8829E-004  
  327.50  2.0953E-004  
  328.00  2.6005E-004  
  328.50  2.7783E-004  
  329.00  2.6095E-004  
  329.50  2.2047E-004  
  330.00  2.0805E-004  
  330.50  2.1377E-004  
  331.00  2.4928E-004  
  331.50  2.7693E-004  
  332.00  2.6272E-004  
  332.50  2.3571E-004  
  333.00  1.6485E-004  
  333.50  1.3083E-004  
  334.00  1.0880E-004  
  334.50  1.1590E-004  
  335.00  1.7915E-004  
  335.50  2.1119E-004  
  336.00  2.3983E-004  
  336.50  2.2346E-004  
  337.00  1.5940E-004  
  337.50  1.5938E-004  
  338.00  1.4855E-004  
  338.50  1.5630E-004  
  339.00  2.0499E-004  
  339.50  1.9271E-004  
  340.00  1.9011E-004  
  340.50  2.3348E-004  
  341.00  2.1641E-004  
  341.50  2.2874E-004  
  342.00  2.4767E-004  
  342.50  2.4962E-004  
  343.00  2.5552E-004  
  343.50  2.4999E-004  
  344.00  2.8143E-004  
  344.50  3.1163E-004  
  345.00  3.1644E-004  
  345.50  3.2532E-004  
  346.00  3.1774E-004  
  346.50  3.5086E-004  
  347.00  3.8599E-004  
  347.50  3.6324E-004  
  348.00  2.7299E-004  
  348.50  2.2058E-004  
  349.00  2.2891E-004  
  349.50  2.8776E-004  
  350.00  3.7829E-004  
  350.50  3.8602E-004  
  351.00  3.8676E-004  
  351.50  3.8421E-004  
  352.00  3.5786E-004  
  352.50  3.7676E-004  
  353.00  3.3187E-004  
  353.50  2.7196E-004  
  354.00  2.5584E-004  
  354.50  2.4641E-004  
  355.00  2.6008E-004  
  355.50  2.9283E-004  
  356.00  2.8534E-004  
  356.50  2.7435E-004  
  357.00  2.8518E-004  
  357.50  3.0077E-004  
  358.00  3.2891E-004  
  358.50  3.3729E-004  
  359.00  2.7380E-004  
  359.50  2.1568E-004  
  360.00  2.1929E-004  
  360.50  2.7419E-004  
  361.00  3.5288E-004  
  361.50  3.6342E-004  
  362.00  3.5511E-004  
  362.50  3.5112E-004  
  363.00  3.1884E-004  
  363.50  3.3141E-004  
  364.00  3.0067E-004  
  364.50  3.0549E-004  
  365.00  3.6540E-004  
  365.50  3.7614E-004  
  366.00  3.5586E-004  
  366.50  3.6864E-004  
  367.00  3.6452E-004  
  367.50  3.5481E-004  
  368.00  3.8003E-004  
  368.50  3.9098E-004  
  369.00  4.0535E-004  
  369.50  4.1663E-004  
  370.00  4.3585E-004  
  370.50  4.1347E-004  
  371.00  4.2523E-004  
  371.50  4.9584E-004  
  372.00  4.8184E-004  
  372.50  4.8876E-004  
  373.00  4.5676E-004  
  373.50  4.6052E-004  
  374.00  4.8299E-004  
  374.50  4.4562E-004  
  375.00  4.1056E-004  
  375.50  3.1963E-004  
  376.00  3.0595E-004  
  376.50  3.3728E-004  
  377.00  3.3572E-004  
  377.50  3.1884E-004  
  378.00  3.1371E-004  
  378.50  3.4442E-004  
  379.00  3.6378E-004  
  379.50  3.9373E-004  
  380.00  3.8237E-004  
  380.50  3.7163E-004  
  381.00  3.8732E-004  
  381.50  4.0492E-004  
  382.00  3.9798E-004  
  382.50  4.0033E-004  
  383.00  4.0534E-004  
  383.50  3.7838E-004  
  384.00  3.6874E-004  
  384.50  3.7105E-004  
  385.00  3.6932E-004  
  385.50  3.6960E-004  
  386.00  3.4838E-004  
  386.50  3.3434E-004  
  387.00  3.6113E-004  
  387.50  3.7863E-004  
  388.00  4.0531E-004  
  388.50  4.1201E-004  
  389.00  4.2593E-004  
  389.50  4.5341E-004  
  390.00  4.8836E-004  
  390.50  5.4475E-004  
  391.00  5.3972E-004  
  391.50  5.1425E-004  
  392.00  4.9775E-004  
  392.50  4.9796E-004  
  393.00  4.9898E-004  
  393.50  5.2921E-004  
  394.00  4.9353E-004  
  394.50  4.6583E-004  
  395.00  5.0053E-004  
  395.50  5.4745E-004  
  396.00  6.1246E-004  
  396.50  6.6792E-004  
  397.00  6.7388E-004  
  397.50  6.4765E-004  
  398.00  6.5006E-004  
  398.50  6.3238E-004  
  399.00  6.1869E-004  
  399.50  6.1311E-004  
  400.00  6.2318E-004  
  400.50  6.7371E-004  
  401.00  7.3976E-004  
  401.50  7.4249E-004  
  402.00  7.3936E-004  
  402.50  7.3813E-004  
  403.00  7.6257E-004  
  403.50  8.1016E-004  
  404.00  8.8923E-004  
  404.50  9.4579E-004  
  405.00  9.8948E-004  
  405.50  1.0111E-003  
  406.00  1.0293E-003  
  406.50  1.0730E-003  
  407.00  1.1463E-003  
  407.50  1.1736E-003  
  408.00  1.1869E-003  
  408.50  1.1409E-003  
  409.00  1.1461E-003  
  409.50  1.1529E-003  
  410.00  1.2009E-003  
  410.50  1.2937E-003  
  411.00  1.4079E-003  
  411.50  1.5542E-003  
  412.00  1.6362E-003  
  412.50  1.7067E-003  
  413.00  1.7621E-003  
  413.50  1.8448E-003  
  414.00  1.9856E-003  
  414.50  2.1031E-003  
  415.00  2.2420E-003  
  415.50  2.3981E-003  
  416.00  2.5803E-003  
  416.50  2.7562E-003  
  417.00  2.9442E-003  
  417.50  3.2017E-003  
  418.00  3.4576E-003  
  418.50  3.7673E-003  
  419.00  4.0593E-003  
  419.50  4.3393E-003  
  420.00  4.6372E-003  
  420.50  4.9633E-003  
  421.00  5.2909E-003  
  421.50  5.6688E-003  
  422.00  6.1324E-003  
  422.50  6.6026E-003  
  423.00  7.1714E-003  
  423.50  7.6830E-003  
  424.00  8.2628E-003  
  424.50  8.8462E-003  
  425.00  9.4632E-003  
  425.50  1.0123E-002  
  426.00  1.0811E-002  
  426.50  1.1642E-002  
  427.00  1.2533E-002  
  427.50  1.3515E-002  
  428.00  1.4513E-002  
  428.50  1.5476E-002  
  429.00  1.6520E-002  
  429.50  1.7684E-002  
  430.00  1.9001E-002  
  430.50  2.0475E-002  
  431.00  2.1889E-002  
  431.50  2.3311E-002  
  432.00  2.4838E-002  
  432.50  2.6470E-002  
  433.00  2.8208E-002  
  433.50  2.9903E-002  
  434.00  3.1771E-002  
  434.50  3.3992E-002  
  435.00  3.6587E-002  
  435.50  3.9274E-002  
  436.00  4.1879E-002  
  436.50  4.4484E-002  
  437.00  4.7316E-002  
  437.50  5.0406E-002  
  438.00  5.3738E-002  
  438.50  5.7019E-002  
  439.00  6.0507E-002  
  439.50  6.4243E-002  
  440.00  6.8223E-002  
  440.50  7.2521E-002  
  441.00  7.6801E-002  
  441.50  8.1213E-002  
  442.00  8.5934E-002  
  442.50  9.0648E-002  
  443.00  9.5476E-002  
  443.50  1.0006E-001  
  444.00  1.0451E-001  
  444.50  1.0900E-001  
  445.00  1.1338E-001  
  445.50  1.1738E-001  
  446.00  1.2095E-001  
  446.50  1.2383E-001  
  447.00  1.2635E-001  
  447.50  1.2865E-001  
  448.00  1.3033E-001  
  448.50  1.3142E-001  
  449.00  1.3193E-001  
  449.50  1.3201E-001  
  450.00  1.3172E-001  
  450.50  1.3071E-001  
  451.00  1.2910E-001  
  451.50  1.2664E-001  
  452.00  1.2403E-001  
  452.50  1.2098E-001  
  453.00  1.1759E-001  
  453.50  1.1393E-001  
  454.00  1.1000E-001  
  454.50  1.0603E-001  
  455.00  1.0242E-001  
  455.50  9.8641E-002  
  456.00  9.4860E-002  
  456.50  9.1321E-002  
  457.00  8.8013E-002  
  457.50  8.4927E-002  
  458.00  8.1818E-002  
  458.50  7.8598E-002  
  459.00  7.5564E-002  
  459.50  7.2930E-002  
  460.00  7.0648E-002  
  460.50  6.8639E-002  
  461.00  6.6606E-002  
  461.50  6.4466E-002  
  462.00  6.2376E-002  
  462.50  6.0542E-002  
  463.00  5.8847E-002  
  463.50  5.7217E-002  
  464.00  5.5499E-002  
  464.50  5.3695E-002  
  465.00  5.2052E-002  
  465.50  5.0432E-002  
  466.00  4.8724E-002  
  466.50  4.7036E-002  
  467.00  4.5348E-002  
  467.50  4.3812E-002  
  468.00  4.2293E-002  
  468.50  4.0779E-002  
  469.00  3.9233E-002  
  469.50  3.7733E-002  
  470.00  3.6307E-002  
  470.50  3.4961E-002  
  471.00  3.3686E-002  
  471.50  3.2472E-002  
  472.00  3.1354E-002  
  472.50  3.0283E-002  
  473.00  2.9350E-002  
  473.50  2.8552E-002  
  474.00  2.7731E-002  
  474.50  2.6877E-002  
  475.00  2.5944E-002  
  475.50  2.5117E-002  
  476.00  2.4455E-002  
  476.50  2.3933E-002  
  477.00  2.3486E-002  
  477.50  2.3017E-002  
  478.00  2.2560E-002  
  478.50  2.2156E-002  
  479.00  2.1767E-002  
  479.50  2.1389E-002  
  480.00  2.1051E-002  
  480.50  2.0745E-002  
  481.00  2.0522E-002  
  481.50  2.0319E-002  
  482.00  2.0124E-002  
  482.50  1.9912E-002  
  483.00  1.9760E-002  
  483.50  1.9605E-002  
  484.00  1.9488E-002  
  484.50  1.9397E-002  
  485.00  1.9316E-002  
  485.50  1.9330E-002  
  486.00  1.9318E-002  
  486.50  1.9366E-002  
  487.00  1.9390E-002  
  487.50  1.9448E-002  
  488.00  1.9574E-002  
  488.50  1.9741E-002  
  489.00  1.9976E-002  
  489.50  2.0220E-002  
  490.00  2.0439E-002  
  490.50  2.0678E-002  
  491.00  2.0911E-002  
  491.50  2.1192E-002  
  492.00  2.1540E-002  
  492.50  2.1963E-002  
  493.00  2.2420E-002  
  493.50  2.2889E-002  
  494.00  2.3330E-002  
  494.50  2.3788E-002  
  495.00  2.4251E-002  
  495.50  2.4815E-002  
  496.00  2.5447E-002  
  496.50  2.6095E-002  
  497.00  2.6773E-002  
  497.50  2.7398E-002  
  498.00  2.7960E-002  
  498.50  2.8575E-002  
  499.00  2.9216E-002  
  499.50  2.9975E-002  
  500.00  3.0763E-002  
  500.50  3.1502E-002  
  501.00  3.2190E-002  
  501.50  3.2872E-002  
  502.00  3.3627E-002  
  502.50  3.4407E-002  
  503.00  3.5221E-002  
  503.50  3.6013E-002  
  504.00  3.6860E-002  
  504.50  3.7732E-002  
  505.00  3.8581E-002  
  505.50  3.9394E-002  
  506.00  4.0162E-002  
  506.50  4.0934E-002  
  507.00  4.1749E-002  
  507.50  4.2656E-002  
  508.00  4.3619E-002  
  508.50  4.4604E-002  
  509.00  4.5495E-002  
  509.50  4.6289E-002  
  510.00  4.7099E-002  
  510.50  4.7920E-002  
  511.00  4.8784E-002  
  511.50  4.9621E-002  
  512.00  5.0466E-002  
  512.50  5.1313E-002  
  513.00  5.2134E-002  
  513.50  5.2900E-002  
  514.00  5.3572E-002  
  514.50  5.4361E-002  
  515.00  5.5194E-002  
  515.50  5.6065E-002  
  516.00  5.6815E-002  
  516.50  5.7465E-002  
  517.00  5.8133E-002  
  517.50  5.8807E-002  
  518.00  5.9539E-002  
  518.50  6.0352E-002  
  519.00  6.1154E-002  
  519.50  6.1814E-002  
  520.00  6.2441E-002  
  520.50  6.2970E-002  
  521.00  6.3549E-002  
  521.50  6.4095E-002  
  522.00  6.4690E-002  
  522.50  6.5357E-002  
  523.00  6.6093E-002  
  523.50  6.6761E-002  
  524.00  6.7331E-002  
  524.50  6.7862E-002  
  525.00  6.8339E-002  
  525.50  6.8770E-002  
  526.00  6.9157E-002  
  526.50  6.9593E-002  
  527.00  7.0068E-002  
  527.50  7.0563E-002  
  528.00  7.0952E-002  
  528.50  7.1326E-002  
  529.00  7.1737E-002  
  529.50  7.2190E-002  
  530.00  7.2627E-002  
  530.50  7.2968E-002  
  531.00  7.3304E-002  
  531.50  7.3475E-002  
  532.00  7.3668E-002  
  532.50  7.3954E-002  
  533.00  7.4255E-002  
  533.50  7.4624E-002  
  534.00  7.4858E-002  
  534.50  7.5087E-002  
  535.00  7.5311E-002  
  535.50  7.5475E-002  
  536.00  7.5647E-002  
  536.50  7.5767E-002  
  537.00  7.5889E-002  
  537.50  7.5991E-002  
  538.00  7.6124E-002  
  538.50  7.6250E-002  
  539.00  7.6385E-002  
  539.50  7.6499E-002  
  540.00  7.6653E-002  
  540.50  7.6822E-002  
  541.00  7.6959E-002  
  541.50  7.7070E-002  
  542.00  7.7196E-002  
  542.50  7.7326E-002  
  543.00  7.7496E-002  
  543.50  7.7560E-002  
  544.00  7.7627E-002  
  544.50  7.7593E-002  
  545.00  7.7582E-002  
  545.50  7.7552E-002  
  546.00  7.7626E-002  
  546.50  7.7675E-002  
  547.00  7.7630E-002  
  547.50  7.7604E-002  
  548.00  7.7649E-002  
  548.50  7.7769E-002  
  549.00  7.7841E-002  
  549.50  7.7714E-002  
  550.00  7.7556E-002  
  550.50  7.7574E-002  
  551.00  7.7623E-002  
  551.50  7.7664E-002  
  552.00  7.7600E-002  
  552.50  7.7435E-002  
  553.00  7.7422E-002  
  553.50  7.7425E-002  
  554.00  7.7428E-002  
  554.50  7.7447E-002  
  555.00  7.7424E-002  
  555.50  7.7450E-002  
  556.00  7.7525E-002  
  556.50  7.7478E-002  
  557.00  7.7478E-002  
  557.50  7.7418E-002  
  558.00  7.7361E-002  
  558.50  7.7312E-002  
  559.00  7.7319E-002  
  559.50  7.7314E-002  
  560.00  7.7334E-002  
  560.50  7.7235E-002  
  561.00  7.7210E-002  
  561.50  7.7112E-002  
  562.00  7.7068E-002  
  562.50  7.6976E-002  
  563.00  7.6955E-002  
  563.50  7.6932E-002  
  564.00  7.6847E-002  
  564.50  7.6713E-002  
  565.00  7.6555E-002  
  565.50  7.6625E-002  
  566.00  7.6716E-002  
  566.50  7.6782E-002  
  567.00  7.6684E-002  
  567.50  7.6537E-002  
  568.00  7.6436E-002  
  568.50  7.6473E-002  
  569.00  7.6444E-002  
  569.50  7.6453E-002  
  570.00  7.6400E-002  
  570.50  7.6461E-002  
  571.00  7.6505E-002  
  571.50  7.6420E-002  
  572.00  7.6345E-002  
  572.50  7.6221E-002  
  573.00  7.6185E-002  
  573.50  7.6098E-002  
  574.00  7.6027E-002  
  574.50  7.6021E-002  
  575.00  7.6030E-002  
  575.50  7.6001E-002  
  576.00  7.5960E-002  
  576.50  7.5914E-002  
  577.00  7.5895E-002  
  577.50  7.5927E-002  
  578.00  7.5937E-002  
  578.50  7.5943E-002  
  579.00  7.5843E-002  
  579.50  7.5671E-002  
  580.00  7.5569E-002  
  580.50  7.5560E-002  
  581.00  7.5566E-002  
  581.50  7.5562E-002  
  582.00  7.5424E-002  
  582.50  7.5354E-002  
  583.00  7.5283E-002  
  583.50  7.5387E-002  
  584.00  7.5446E-002  
  584.50  7.5396E-002  
  585.00  7.5138E-002  
  585.50  7.4956E-002  
  586.00  7.4990E-002  
  586.50  7.5167E-002  
  587.00  7.5187E-002  
  587.50  7.4998E-002  
  588.00  7.4762E-002  
  588.50  7.4764E-002  
  589.00  7.4840E-002  
  589.50  7.4830E-002  
  590.00  7.4642E-002  
  590.50  7.4480E-002  
  591.00  7.4435E-002  
  591.50  7.4437E-002  
  592.00  7.4253E-002  
  592.50  7.4016E-002  
  593.00  7.3810E-002  
  593.50  7.3712E-002  
  594.00  7.3637E-002  
  594.50  7.3507E-002  
  595.00  7.3466E-002  
  595.50  7.3263E-002  
  596.00  7.3050E-002  
  596.50  7.2841E-002  
  597.00  7.2698E-002  
  597.50  7.2603E-002  
  598.00  7.2319E-002  
  598.50  7.2047E-002  
  599.00  7.1772E-002  
  599.50  7.1589E-002  
  600.00  7.1463E-002  
  600.50  7.1261E-002  
  601.00  7.0991E-002  
  601.50  7.0629E-002  
  602.00  7.0263E-002  
  602.50  7.0062E-002  
  603.00  6.9945E-002  
  603.50  6.9833E-002  
  604.00  6.9598E-002  
  604.50  6.9299E-002  
  605.00  6.9059E-002  
  605.50  6.8747E-002  
  606.00  6.8389E-002  
  606.50  6.8087E-002  
  607.00  6.7840E-002  
  607.50  6.7646E-002  
  608.00  6.7419E-002  
  608.50  6.7164E-002  
  609.00  6.6850E-002  
  609.50  6.6452E-002  
  610.00  6.5959E-002  
  610.50  6.5551E-002  
  611.00  6.5260E-002  
  611.50  6.4972E-002  
  612.00  6.4637E-002  
  612.50  6.4181E-002  
  613.00  6.3901E-002  
  613.50  6.3670E-002  
  614.00  6.3391E-002  
  614.50  6.3069E-002  
  615.00  6.2658E-002  
  615.50  6.2209E-002  
  616.00  6.1744E-002  
  616.50  6.1333E-002  
  617.00  6.0994E-002  
  617.50  6.0587E-002  
  618.00  6.0284E-002  
  618.50  6.0048E-002  
  619.00  5.9827E-002  
  619.50  5.9460E-002  
  620.00  5.8992E-002  
  620.50  5.8436E-002  
  621.00  5.7958E-002  
  621.50  5.7540E-002  
  622.00  5.7233E-002  
  622.50  5.6802E-002  
  623.00  5.6283E-002  
  623.50  5.5854E-002  
  624.00  5.5514E-002  
  624.50  5.5224E-002  
  625.00  5.4803E-002  
  625.50  5.4386E-002  
  626.00  5.3958E-002  
  626.50  5.3620E-002  
  627.00  5.3281E-002  
  627.50  5.2877E-002  
  628.00  5.2380E-002  
  628.50  5.1798E-002  
  629.00  5.1262E-002  
  629.50  5.0710E-002  
  630.00  5.0293E-002  
  630.50  4.9996E-002  
  631.00  4.9779E-002  
  631.50  4.9447E-002  
  632.00  4.8952E-002  
  632.50  4.8392E-002  
  633.00  4.7959E-002  
  633.50  4.7547E-002  
  634.00  4.7137E-002  
  634.50  4.6690E-002  
  635.00  4.6266E-002  
  635.50  4.5819E-002  
  636.00  4.5382E-002  
  636.50  4.4939E-002  
  637.00  4.4669E-002  
  637.50  4.4286E-002  
  638.00  4.3940E-002  
  638.50  4.3482E-002  
  639.00  4.3094E-002  
  639.50  4.2671E-002  
  640.00  4.2247E-002  
  640.50  4.1807E-002  
  641.00  4.1374E-002  
  641.50  4.0999E-002  
  642.00  4.0589E-002  
  642.50  4.0118E-002  
  643.00  3.9699E-002  
  643.50  3.9335E-002  
  644.00  3.9074E-002  
  644.50  3.8693E-002  
  645.00  3.8246E-002  
  645.50  3.7755E-002  
  646.00  3.7313E-002  
  646.50  3.6922E-002  
  647.00  3.6543E-002  
  647.50  3.6129E-002  
  648.00  3.5707E-002  
  648.50  3.5331E-002  
  649.00  3.4952E-002  
  649.50  3.4643E-002  
  650.00  3.4321E-002  
  650.50  3.3979E-002  
  651.00  3.3607E-002  
  651.50  3.3153E-002  
  652.00  3.2736E-002  
  652.50  3.2366E-002  
  653.00  3.2002E-002  
  653.50  3.1648E-002  
  654.00  3.1307E-002  
  654.50  3.1000E-002  
  655.00  3.0676E-002  
  655.50  3.0292E-002  
  656.00  2.9910E-002  
  656.50  2.9565E-002  
  657.00  2.9138E-002  
  657.50  2.8671E-002  
  658.00  2.8246E-002  
  658.50  2.7955E-002  
  659.00  2.7684E-002  
  659.50  2.7462E-002  
  660.00  2.7227E-002  
  660.50  2.7008E-002  
  661.00  2.6667E-002  
  661.50  2.6276E-002  
  662.00  2.5931E-002  
  662.50  2.5612E-002  
  663.00  2.5291E-002  
  663.50  2.4931E-002  
  664.00  2.4598E-002  
  664.50  2.4190E-002  
  665.00  2.3856E-002  
  665.50  2.3547E-002  
  666.00  2.3230E-002  
  666.50  2.2894E-002  
  667.00  2.2568E-002  
  667.50  2.2429E-002  
  668.00  2.2178E-002  
  668.50  2.1931E-002  
  669.00  2.1651E-002  
  669.50  2.1393E-002  
  670.00  2.1071E-002  
  670.50  2.0830E-002  
  671.00  2.0602E-002  
  671.50  2.0276E-002  
  672.00  1.9889E-002  
  672.50  1.9602E-002  
  673.00  1.9481E-002  
  673.50  1.9345E-002  
  674.00  1.9144E-002  
  674.50  1.8901E-002  
  675.00  1.8594E-002  
  675.50  1.8310E-002  
  676.00  1.7981E-002  
  676.50  1.7770E-002  
  677.00  1.7580E-002  
  677.50  1.7445E-002  
  678.00  1.7201E-002  
  678.50  1.6958E-002  
  679.00  1.6779E-002  
  679.50  1.6649E-002  
  680.00  1.6452E-002  
  680.50  1.6159E-002  
  681.00  1.5917E-002  
