
# From lspdd.org
# 
# Name: DEL Philips Encaster 7inch Calculite Domestique
# Indice spectral Valeur 
# MSI 0.25 
# SLI 0.44 
# IPI 0.66 
# Pourcentage de bleu 14.4 
# Caractéristique Valeur 
# CCT calculée (K) 2812 
# CCT du fabricant (K) 3000 
# Tension (V) ND 
# Puissance (W) 22.0 
# Efficacité lumineuse (Lum/W) ND 
#
# Image: '/app/system/img_2s/2594/medium_image2.jpg?1413486547'
# Image: '/app/system/img_1s/2594/medium_image1.jpg?1413486555'
# 

  273.00  0.0000E+000  
  273.50  0.0000E+000  
  274.00  0.0000E+000  
  274.50  0.0000E+000  
  275.00  0.0000E+000  
  275.50  0.0000E+000  
  276.00  0.0000E+000  
  276.50  0.0000E+000  
  277.00  0.0000E+000  
  277.50  0.0000E+000  
  278.00  0.0000E+000  
  278.50  0.0000E+000  
  279.00  0.0000E+000  
  279.50  0.0000E+000  
  280.00  0.0000E+000  
  280.50  0.0000E+000  
  281.00  0.0000E+000  
  281.50  0.0000E+000  
  282.00  0.0000E+000  
  282.50  0.0000E+000  
  283.00  0.0000E+000  
  283.50  0.0000E+000  
  284.00  0.0000E+000  
  284.50  0.0000E+000  
  285.00  0.0000E+000  
  285.50  0.0000E+000  
  286.00  0.0000E+000  
  286.50  0.0000E+000  
  287.00  0.0000E+000  
  287.50  0.0000E+000  
  288.00  0.0000E+000  
  288.50  0.0000E+000  
  289.00  0.0000E+000  
  289.50  0.0000E+000  
  290.00  0.0000E+000  
  290.50  0.0000E+000  
  291.00  0.0000E+000  
  291.50  0.0000E+000  
  292.00  0.0000E+000  
  292.50  0.0000E+000  
  293.00  0.0000E+000  
  293.50  0.0000E+000  
  294.00  0.0000E+000  
  294.50  0.0000E+000  
  295.00  0.0000E+000  
  295.50  0.0000E+000  
  296.00  0.0000E+000  
  296.50  0.0000E+000  
  297.00  0.0000E+000  
  297.50  0.0000E+000  
  298.00  0.0000E+000  
  298.50  0.0000E+000  
  299.00  0.0000E+000  
  299.50  0.0000E+000  
  300.00  5.1810E-005  
  300.50  1.3293E-004  
  301.00  1.3872E-004  
  301.50  9.5271E-005  
  302.00  1.9577E-005  
  302.50  0.0000E+000  
  303.00  0.0000E+000  
  303.50  0.0000E+000  
  304.00  1.7912E-005  
  304.50  6.1254E-005  
  305.00  9.8412E-005  
  305.50  1.1477E-004  
  306.00  1.3496E-004  
  306.50  1.7480E-004  
  307.00  1.7704E-004  
  307.50  1.8105E-004  
  308.00  1.3953E-004  
  308.50  1.2058E-004  
  309.00  1.2920E-004  
  309.50  7.2695E-005  
  310.00  1.4314E-005  
  310.50  0.0000E+000  
  311.00  0.0000E+000  
  311.50  0.0000E+000  
  312.00  4.1197E-005  
  312.50  5.1680E-005  
  313.00  8.3205E-005  
  313.50  7.1518E-005  
  314.00  2.7177E-006  
  314.50  0.0000E+000  
  315.00  0.0000E+000  
  315.50  5.7364E-006  
  316.00  2.1418E-005  
  316.50  3.3833E-005  
  317.00  5.5714E-005  
  317.50  4.3463E-005  
  318.00  4.3632E-005  
  318.50  3.7198E-005  
  319.00  4.1995E-005  
  319.50  3.5326E-005  
  320.00  3.0753E-005  
  320.50  3.1684E-005  
  321.00  2.1297E-005  
  321.50  5.0062E-005  
  322.00  9.4372E-005  
  322.50  1.1287E-004  
  323.00  1.1116E-004  
  323.50  7.7952E-005  
  324.00  4.4628E-005  
  324.50  6.6275E-005  
  325.00  1.1777E-004  
  325.50  1.5443E-004  
  326.00  1.1598E-004  
  326.50  8.6908E-005  
  327.00  4.8349E-005  
  327.50  3.9648E-005  
  328.00  5.2571E-005  
  328.50  3.4175E-005  
  329.00  7.1587E-007  
  329.50  0.0000E+000  
  330.00  3.0844E-005  
  330.50  5.5860E-005  
  331.00  8.3086E-005  
  331.50  1.3101E-004  
  332.00  1.4058E-004  
  332.50  1.6023E-004  
  333.00  1.6306E-004  
  333.50  1.0445E-004  
  334.00  5.7333E-005  
  334.50  4.2781E-005  
  335.00  2.5343E-005  
  335.50  3.7678E-005  
  336.00  8.6379E-005  
  336.50  9.2269E-005  
  337.00  1.0462E-004  
  337.50  1.0287E-004  
  338.00  2.9325E-005  
  338.50  4.5594E-005  
  339.00  1.1308E-004  
  339.50  1.5052E-004  
  340.00  1.7857E-004  
  340.50  1.7560E-004  
  341.00  1.3786E-004  
  341.50  1.0814E-004  
  342.00  1.1446E-004  
  342.50  6.0368E-005  
  343.00  3.7380E-005  
  343.50  4.3355E-005  
  344.00  7.0039E-005  
  344.50  9.6869E-005  
  345.00  6.7291E-005  
  345.50  2.9348E-005  
  346.00  1.7275E-005  
  346.50  4.1241E-005  
  347.00  7.4129E-005  
  347.50  9.6738E-005  
  348.00  5.9870E-005  
  348.50  7.1190E-005  
  349.00  1.1825E-004  
  349.50  1.5107E-004  
  350.00  1.5898E-004  
  350.50  1.3878E-004  
  351.00  1.1571E-004  
  351.50  1.1253E-004  
  352.00  8.3397E-005  
  352.50  1.5051E-005  
  353.00  0.0000E+000  
  353.50  0.0000E+000  
  354.00  0.0000E+000  
  354.50  0.0000E+000  
  355.00  0.0000E+000  
  355.50  0.0000E+000  
  356.00  0.0000E+000  
  356.50  0.0000E+000  
  357.00  4.3416E-005  
  357.50  6.4967E-005  
  358.00  7.2618E-005  
  358.50  7.0488E-005  
  359.00  2.7371E-005  
  359.50  5.7401E-005  
  360.00  1.2604E-004  
  360.50  1.8032E-004  
  361.00  2.4506E-004  
  361.50  2.1875E-004  
  362.00  1.6138E-004  
  362.50  1.1321E-004  
  363.00  1.0742E-004  
  363.50  9.3576E-005  
  364.00  8.5040E-005  
  364.50  5.6561E-005  
  365.00  5.9058E-005  
  365.50  8.4095E-005  
  366.00  7.8991E-005  
  366.50  6.8207E-005  
  367.00  6.4919E-005  
  367.50  5.4228E-005  
  368.00  3.9657E-005  
  368.50  4.5168E-005  
  369.00  8.2262E-005  
  369.50  1.6304E-004  
  370.00  2.4464E-004  
  370.50  2.4050E-004  
  371.00  1.7407E-004  
  371.50  1.4996E-004  
  372.00  1.4586E-004  
  372.50  1.5855E-004  
  373.00  2.0443E-004  
  373.50  1.7365E-004  
  374.00  1.7777E-004  
  374.50  1.3743E-004  
  375.00  9.3896E-005  
  375.50  8.3072E-005  
  376.00  5.8944E-005  
  376.50  9.2831E-005  
  377.00  1.3465E-004  
  377.50  1.3934E-004  
  378.00  1.7566E-004  
  378.50  1.7536E-004  
  379.00  1.5481E-004  
  379.50  1.9054E-004  
  380.00  1.5651E-004  
  380.50  1.5717E-004  
  381.00  1.6559E-004  
  381.50  1.2663E-004  
  382.00  1.1965E-004  
  382.50  1.0128E-004  
  383.00  1.0050E-004  
  383.50  1.2821E-004  
  384.00  1.5495E-004  
  384.50  1.8134E-004  
  385.00  2.4046E-004  
  385.50  2.5435E-004  
  386.00  2.2747E-004  
  386.50  1.9921E-004  
  387.00  1.3399E-004  
  387.50  1.0883E-004  
  388.00  1.2713E-004  
  388.50  9.6197E-005  
  389.00  1.0824E-004  
  389.50  1.0272E-004  
  390.00  1.2467E-004  
  390.50  1.4640E-004  
  391.00  1.3279E-004  
  391.50  1.6060E-004  
  392.00  1.6768E-004  
  392.50  1.6509E-004  
  393.00  1.8362E-004  
  393.50  1.7632E-004  
  394.00  1.9925E-004  
  394.50  2.2566E-004  
  395.00  2.3024E-004  
  395.50  2.5726E-004  
  396.00  2.9314E-004  
  396.50  3.1921E-004  
  397.00  3.2611E-004  
  397.50  2.9659E-004  
  398.00  2.2617E-004  
  398.50  1.4286E-004  
  399.00  1.3882E-004  
  399.50  1.2709E-004  
  400.00  1.4821E-004  
  400.50  1.7443E-004  
  401.00  1.3352E-004  
  401.50  1.4543E-004  
  402.00  1.4426E-004  
  402.50  1.5992E-004  
  403.00  2.1745E-004  
  403.50  2.4004E-004  
  404.00  2.8793E-004  
  404.50  2.9268E-004  
  405.00  2.7004E-004  
  405.50  2.5848E-004  
  406.00  2.5056E-004  
  406.50  3.1449E-004  
  407.00  4.1338E-004  
  407.50  4.6863E-004  
  408.00  5.0015E-004  
  408.50  4.4940E-004  
  409.00  4.4974E-004  
  409.50  4.7059E-004  
  410.00  4.9805E-004  
  410.50  5.2333E-004  
  411.00  4.8675E-004  
  411.50  5.2075E-004  
  412.00  5.4557E-004  
  412.50  5.9194E-004  
  413.00  6.5816E-004  
  413.50  6.9786E-004  
  414.00  7.8726E-004  
  414.50  8.6697E-004  
  415.00  9.3296E-004  
  415.50  1.0134E-003  
  416.00  1.1085E-003  
  416.50  1.2045E-003  
  417.00  1.2691E-003  
  417.50  1.2774E-003  
  418.00  1.2739E-003  
  418.50  1.3418E-003  
  419.00  1.4830E-003  
  419.50  1.6279E-003  
  420.00  1.7981E-003  
  420.50  1.9350E-003  
  421.00  2.1407E-003  
  421.50  2.3059E-003  
  422.00  2.4569E-003  
  422.50  2.5935E-003  
  423.00  2.6758E-003  
  423.50  2.8464E-003  
  424.00  3.0126E-003  
  424.50  3.1618E-003  
  425.00  3.3900E-003  
  425.50  3.6514E-003  
  426.00  3.9396E-003  
  426.50  4.2029E-003  
  427.00  4.4438E-003  
  427.50  4.7650E-003  
  428.00  5.1223E-003  
  428.50  5.5124E-003  
  429.00  5.8425E-003  
  429.50  6.1046E-003  
  430.00  6.4151E-003  
  430.50  6.8022E-003  
  431.00  7.1898E-003  
  431.50  7.6058E-003  
  432.00  7.9894E-003  
  432.50  8.4241E-003  
  433.00  8.9007E-003  
  433.50  9.3603E-003  
  434.00  9.8181E-003  
  434.50  1.0280E-002  
  435.00  1.0749E-002  
  435.50  1.1315E-002  
  436.00  1.1856E-002  
  436.50  1.2462E-002  
  437.00  1.3046E-002  
  437.50  1.3614E-002  
  438.00  1.4258E-002  
  438.50  1.4935E-002  
  439.00  1.5629E-002  
  439.50  1.6381E-002  
  440.00  1.7063E-002  
  440.50  1.7843E-002  
  441.00  1.8583E-002  
  441.50  1.9399E-002  
  442.00  2.0178E-002  
  442.50  2.0858E-002  
  443.00  2.1720E-002  
  443.50  2.2568E-002  
  444.00  2.3498E-002  
  444.50  2.4374E-002  
  445.00  2.5163E-002  
  445.50  2.5967E-002  
  446.00  2.6809E-002  
  446.50  2.7596E-002  
  447.00  2.8225E-002  
  447.50  2.8812E-002  
  448.00  2.9367E-002  
  448.50  2.9864E-002  
  449.00  3.0307E-002  
  449.50  3.0596E-002  
  450.00  3.0858E-002  
  450.50  3.1060E-002  
  451.00  3.1175E-002  
  451.50  3.1111E-002  
  452.00  3.0909E-002  
  452.50  3.0553E-002  
  453.00  3.0097E-002  
  453.50  2.9569E-002  
  454.00  2.8974E-002  
  454.50  2.8322E-002  
  455.00  2.7722E-002  
  455.50  2.6977E-002  
  456.00  2.6112E-002  
  456.50  2.5178E-002  
  457.00  2.4258E-002  
  457.50  2.3424E-002  
  458.00  2.2570E-002  
  458.50  2.1634E-002  
  459.00  2.0756E-002  
  459.50  1.9855E-002  
  460.00  1.8988E-002  
  460.50  1.8192E-002  
  461.00  1.7407E-002  
  461.50  1.6722E-002  
  462.00  1.6086E-002  
  462.50  1.5410E-002  
  463.00  1.4753E-002  
  463.50  1.4190E-002  
  464.00  1.3705E-002  
  464.50  1.3252E-002  
  465.00  1.2843E-002  
  465.50  1.2452E-002  
  466.00  1.2043E-002  
  466.50  1.1587E-002  
  467.00  1.1116E-002  
  467.50  1.0740E-002  
  468.00  1.0465E-002  
  468.50  1.0235E-002  
  469.00  9.9644E-003  
  469.50  9.6910E-003  
  470.00  9.4242E-003  
  470.50  9.1859E-003  
  471.00  8.9455E-003  
  471.50  8.6691E-003  
  472.00  8.3907E-003  
  472.50  8.0957E-003  
  473.00  7.8689E-003  
  473.50  7.6887E-003  
  474.00  7.5292E-003  
  474.50  7.3292E-003  
  475.00  7.0665E-003  
  475.50  6.8169E-003  
  476.00  6.6793E-003  
  476.50  6.5514E-003  
  477.00  6.4449E-003  
  477.50  6.2373E-003  
  478.00  6.0497E-003  
  478.50  5.9083E-003  
  479.00  5.7821E-003  
  479.50  5.7062E-003  
  480.00  5.6350E-003  
  480.50  5.5647E-003  
  481.00  5.4546E-003  
  481.50  5.3561E-003  
  482.00  5.2578E-003  
  482.50  5.2152E-003  
  483.00  5.1630E-003  
  483.50  5.1161E-003  
  484.00  5.0759E-003  
  484.50  5.0667E-003  
  485.00  5.0517E-003  
  485.50  5.0418E-003  
  486.00  5.0366E-003  
  486.50  5.0542E-003  
  487.00  5.0916E-003  
  487.50  5.1592E-003  
  488.00  5.1873E-003  
  488.50  5.2098E-003  
  489.00  5.2265E-003  
  489.50  5.2459E-003  
  490.00  5.3110E-003  
  490.50  5.3579E-003  
  491.00  5.4249E-003  
  491.50  5.5050E-003  
  492.00  5.5801E-003  
  492.50  5.7077E-003  
  493.00  5.8617E-003  
  493.50  6.0232E-003  
  494.00  6.1855E-003  
  494.50  6.2992E-003  
  495.00  6.3983E-003  
  495.50  6.5139E-003  
  496.00  6.6587E-003  
  496.50  6.8967E-003  
  497.00  7.1787E-003  
  497.50  7.4646E-003  
  498.00  7.7402E-003  
  498.50  7.9751E-003  
  499.00  8.2415E-003  
  499.50  8.5354E-003  
  500.00  8.8105E-003  
  500.50  9.0905E-003  
  501.00  9.3866E-003  
  501.50  9.7131E-003  
  502.00  1.0070E-002  
  502.50  1.0416E-002  
  503.00  1.0815E-002  
  503.50  1.1235E-002  
  504.00  1.1702E-002  
  504.50  1.2162E-002  
  505.00  1.2575E-002  
  505.50  1.2988E-002  
  506.00  1.3399E-002  
  506.50  1.3873E-002  
  507.00  1.4376E-002  
  507.50  1.4917E-002  
  508.00  1.5434E-002  
  508.50  1.5960E-002  
  509.00  1.6445E-002  
  509.50  1.6951E-002  
  510.00  1.7458E-002  
  510.50  1.7954E-002  
  511.00  1.8531E-002  
  511.50  1.9065E-002  
  512.00  1.9628E-002  
  512.50  2.0139E-002  
  513.00  2.0701E-002  
  513.50  2.1303E-002  
  514.00  2.1935E-002  
  514.50  2.2541E-002  
  515.00  2.3098E-002  
  515.50  2.3648E-002  
  516.00  2.4208E-002  
  516.50  2.4789E-002  
  517.00  2.5386E-002  
  517.50  2.6000E-002  
  518.00  2.6610E-002  
  518.50  2.7248E-002  
  519.00  2.7888E-002  
  519.50  2.8508E-002  
  520.00  2.9078E-002  
  520.50  2.9618E-002  
  521.00  3.0209E-002  
  521.50  3.0833E-002  
  522.00  3.1474E-002  
  522.50  3.2053E-002  
  523.00  3.2578E-002  
  523.50  3.3108E-002  
  524.00  3.3680E-002  
  524.50  3.4333E-002  
  525.00  3.4999E-002  
  525.50  3.5613E-002  
  526.00  3.6104E-002  
  526.50  3.6648E-002  
  527.00  3.7197E-002  
  527.50  3.7809E-002  
  528.00  3.8313E-002  
  528.50  3.8783E-002  
  529.00  3.9243E-002  
  529.50  3.9814E-002  
  530.00  4.0406E-002  
  530.50  4.0942E-002  
  531.00  4.1492E-002  
  531.50  4.1941E-002  
  532.00  4.2424E-002  
  532.50  4.2891E-002  
  533.00  4.3354E-002  
  533.50  4.3844E-002  
  534.00  4.4289E-002  
  534.50  4.4759E-002  
  535.00  4.5206E-002  
  535.50  4.5680E-002  
  536.00  4.6134E-002  
  536.50  4.6530E-002  
  537.00  4.6993E-002  
  537.50  4.7403E-002  
  538.00  4.7882E-002  
  538.50  4.8275E-002  
  539.00  4.8653E-002  
  539.50  4.9014E-002  
  540.00  4.9426E-002  
  540.50  4.9848E-002  
  541.00  5.0258E-002  
  541.50  5.0589E-002  
  542.00  5.0877E-002  
  542.50  5.1185E-002  
  543.00  5.1587E-002  
  543.50  5.1962E-002  
  544.00  5.2343E-002  
  544.50  5.2672E-002  
  545.00  5.3043E-002  
  545.50  5.3458E-002  
  546.00  5.3810E-002  
  546.50  5.4164E-002  
  547.00  5.4420E-002  
  547.50  5.4753E-002  
  548.00  5.5114E-002  
  548.50  5.5533E-002  
  549.00  5.5846E-002  
  549.50  5.6056E-002  
  550.00  5.6241E-002  
  550.50  5.6543E-002  
  551.00  5.6871E-002  
  551.50  5.7195E-002  
  552.00  5.7424E-002  
  552.50  5.7726E-002  
  553.00  5.8032E-002  
  553.50  5.8395E-002  
  554.00  5.8715E-002  
  554.50  5.8967E-002  
  555.00  5.9152E-002  
  555.50  5.9387E-002  
  556.00  5.9641E-002  
  556.50  5.9825E-002  
  557.00  6.0023E-002  
  557.50  6.0221E-002  
  558.00  6.0600E-002  
  558.50  6.1002E-002  
  559.00  6.1312E-002  
  559.50  6.1538E-002  
  560.00  6.1832E-002  
  560.50  6.2045E-002  
  561.00  6.2327E-002  
  561.50  6.2506E-002  
  562.00  6.2769E-002  
  562.50  6.3021E-002  
  563.00  6.3127E-002  
  563.50  6.3235E-002  
  564.00  6.3330E-002  
  564.50  6.3467E-002  
  565.00  6.3678E-002  
  565.50  6.3925E-002  
  566.00  6.4168E-002  
  566.50  6.4377E-002  
  567.00  6.4448E-002  
  567.50  6.4583E-002  
  568.00  6.4762E-002  
  568.50  6.4972E-002  
  569.00  6.5197E-002  
  569.50  6.5457E-002  
  570.00  6.5751E-002  
  570.50  6.5968E-002  
  571.00  6.6056E-002  
  571.50  6.6092E-002  
  572.00  6.6259E-002  
  572.50  6.6425E-002  
  573.00  6.6505E-002  
  573.50  6.6497E-002  
  574.00  6.6638E-002  
  574.50  6.6853E-002  
  575.00  6.7086E-002  
  575.50  6.7219E-002  
  576.00  6.7395E-002  
  576.50  6.7573E-002  
  577.00  6.7847E-002  
  577.50  6.8075E-002  
  578.00  6.8230E-002  
  578.50  6.8341E-002  
  579.00  6.8429E-002  
  579.50  6.8547E-002  
  580.00  6.8717E-002  
  580.50  6.8807E-002  
  581.00  6.8913E-002  
  581.50  6.9002E-002  
  582.00  6.9165E-002  
  582.50  6.9348E-002  
  583.00  6.9518E-002  
  583.50  6.9695E-002  
  584.00  6.9909E-002  
  584.50  7.0039E-002  
  585.00  7.0176E-002  
  585.50  7.0193E-002  
  586.00  7.0295E-002  
  586.50  7.0378E-002  
  587.00  7.0446E-002  
  587.50  7.0570E-002  
  588.00  7.0730E-002  
  588.50  7.0898E-002  
  589.00  7.1067E-002  
  589.50  7.1134E-002  
  590.00  7.1261E-002  
  590.50  7.1383E-002  
  591.00  7.1560E-002  
  591.50  7.1658E-002  
  592.00  7.1685E-002  
  592.50  7.1740E-002  
  593.00  7.1817E-002  
  593.50  7.1979E-002  
  594.00  7.2128E-002  
  594.50  7.2168E-002  
  595.00  7.2200E-002  
  595.50  7.2132E-002  
  596.00  7.2157E-002  
  596.50  7.2204E-002  
  597.00  7.2252E-002  
  597.50  7.2392E-002  
  598.00  7.2500E-002  
  598.50  7.2739E-002  
  599.00  7.2835E-002  
  599.50  7.2777E-002  
  600.00  7.2665E-002  
  600.50  7.2664E-002  
  601.00  7.2827E-002  
  601.50  7.2947E-002  
  602.00  7.2944E-002  
  602.50  7.2969E-002  
  603.00  7.3019E-002  
  603.50  7.3063E-002  
  604.00  7.3062E-002  
  604.50  7.3015E-002  
  605.00  7.3048E-002  
  605.50  7.2934E-002  
  606.00  7.2852E-002  
  606.50  7.2815E-002  
  607.00  7.2901E-002  
  607.50  7.2974E-002  
  608.00  7.2956E-002  
  608.50  7.3007E-002  
  609.00  7.3044E-002  
  609.50  7.3070E-002  
  610.00  7.3012E-002  
  610.50  7.2774E-002  
  611.00  7.2630E-002  
  611.50  7.2582E-002  
  612.00  7.2682E-002  
  612.50  7.2779E-002  
  613.00  7.2783E-002  
  613.50  7.2761E-002  
  614.00  7.2722E-002  
  614.50  7.2630E-002  
  615.00  7.2594E-002  
  615.50  7.2461E-002  
  616.00  7.2290E-002  
  616.50  7.2189E-002  
  617.00  7.2077E-002  
  617.50  7.2005E-002  
  618.00  7.1812E-002  
  618.50  7.1684E-002  
  619.00  7.1542E-002  
  619.50  7.1403E-002  
  620.00  7.1262E-002  
  620.50  7.1139E-002  
  621.00  7.1092E-002  
  621.50  7.1072E-002  
  622.00  7.1037E-002  
  622.50  7.0820E-002  
  623.00  7.0584E-002  
  623.50  7.0473E-002  
  624.00  7.0336E-002  
  624.50  7.0262E-002  
  625.00  7.0084E-002  
  625.50  7.0038E-002  
  626.00  6.9813E-002  
  626.50  6.9612E-002  
  627.00  6.9402E-002  
  627.50  6.9227E-002  
  628.00  6.8976E-002  
  628.50  6.8643E-002  
  629.00  6.8396E-002  
  629.50  6.8100E-002  
  630.00  6.8006E-002  
  630.50  6.7883E-002  
  631.00  6.7803E-002  
  631.50  6.7646E-002  
  632.00  6.7327E-002  
  632.50  6.7052E-002  
  633.00  6.6703E-002  
  633.50  6.6415E-002  
  634.00  6.6186E-002  
  634.50  6.6078E-002  
  635.00  6.6048E-002  
  635.50  6.5839E-002  
  636.00  6.5455E-002  
  636.50  6.4992E-002  
  637.00  6.4661E-002  
  637.50  6.4470E-002  
  638.00  6.4347E-002  
  638.50  6.4142E-002  
  639.00  6.3857E-002  
  639.50  6.3453E-002  
  640.00  6.3101E-002  
  640.50  6.2771E-002  
  641.00  6.2488E-002  
  641.50  6.2249E-002  
  642.00  6.1925E-002  
  642.50  6.1551E-002  
  643.00  6.1062E-002  
  643.50  6.0704E-002  
  644.00  6.0490E-002  
  644.50  6.0328E-002  
  645.00  6.0079E-002  
  645.50  5.9745E-002  
  646.00  5.9381E-002  
  646.50  5.8901E-002  
  647.00  5.8528E-002  
  647.50  5.8207E-002  
  648.00  5.7986E-002  
  648.50  5.7718E-002  
  649.00  5.7499E-002  
  649.50  5.7184E-002  
  650.00  5.6806E-002  
  650.50  5.6393E-002  
  651.00  5.6203E-002  
  651.50  5.5922E-002  
  652.00  5.5487E-002  
  652.50  5.4936E-002  
  653.00  5.4484E-002  
  653.50  5.4099E-002  
  654.00  5.3703E-002  
  654.50  5.3251E-002  
  655.00  5.2872E-002  
  655.50  5.2559E-002  
  656.00  5.2331E-002  
  656.50  5.2014E-002  
  657.00  5.1632E-002  
  657.50  5.1246E-002  
  658.00  5.0853E-002  
  658.50  5.0392E-002  
  659.00  4.9971E-002  
  659.50  4.9611E-002  
  660.00  4.9293E-002  
  660.50  4.8934E-002  
  661.00  4.8566E-002  
  661.50  4.8244E-002  
  662.00  4.7863E-002  
  662.50  4.7496E-002  
  663.00  4.7067E-002  
  663.50  4.6578E-002  
  664.00  4.5998E-002  
  664.50  4.5522E-002  
  665.00  4.5143E-002  
  665.50  4.4746E-002  
  666.00  4.4332E-002  
  666.50  4.4044E-002  
  667.00  4.3846E-002  
  667.50  4.3504E-002  
  668.00  4.2975E-002  
  668.50  4.2518E-002  
  669.00  4.2261E-002  
  669.50  4.1990E-002  
  670.00  4.1570E-002  
  670.50  4.0993E-002  
  671.00  4.0617E-002  
  671.50  4.0319E-002  
  672.00  4.0062E-002  
  672.50  3.9728E-002  
  673.00  3.9367E-002  
  673.50  3.8989E-002  
  674.00  3.8422E-002  
  674.50  3.7872E-002  
  675.00  3.7552E-002  
  675.50  3.7343E-002  
  676.00  3.7053E-002  
  676.50  3.6572E-002  
  677.00  3.6109E-002  
  677.50  3.5801E-002  
  678.00  3.5450E-002  
  678.50  3.5113E-002  
  679.00  3.4764E-002  
  679.50  3.4540E-002  
