
# From lspdd.org
# 
# Name: DEL GE A19 Domestique
# Indice spectral Valeur 
# MSI 0.32 
# SLI 0.52 
# IPI 0.65 
# Pourcentage de bleu 20.4 
# Caractéristique Valeur 
# CCT calculée (K) 3010 
# CCT du fabricant (K) 3000 
# Tension (V) 120 
# Puissance (W) 9.0 
# Efficacité lumineuse (Lum/W) 50.0 
#
# Image: '/app/system/img_2s/2595/medium_image2.JPG?1413486556'
# Image: '/app/system/img_1s/2595/medium_image1.JPG?1413486559'
# 

  273.00  0.0000E+000  
  273.50  0.0000E+000  
  274.00  0.0000E+000  
  274.50  0.0000E+000  
  275.00  0.0000E+000  
  275.50  0.0000E+000  
  276.00  0.0000E+000  
  276.50  0.0000E+000  
  277.00  0.0000E+000  
  277.50  0.0000E+000  
  278.00  0.0000E+000  
  278.50  0.0000E+000  
  279.00  0.0000E+000  
  279.50  0.0000E+000  
  280.00  0.0000E+000  
  280.50  0.0000E+000  
  281.00  0.0000E+000  
  281.50  0.0000E+000  
  282.00  0.0000E+000  
  282.50  0.0000E+000  
  283.00  0.0000E+000  
  283.50  0.0000E+000  
  284.00  0.0000E+000  
  284.50  0.0000E+000  
  285.00  0.0000E+000  
  285.50  0.0000E+000  
  286.00  0.0000E+000  
  286.50  0.0000E+000  
  287.00  0.0000E+000  
  287.50  0.0000E+000  
  288.00  0.0000E+000  
  288.50  0.0000E+000  
  289.00  0.0000E+000  
  289.50  0.0000E+000  
  290.00  0.0000E+000  
  290.50  0.0000E+000  
  291.00  0.0000E+000  
  291.50  0.0000E+000  
  292.00  0.0000E+000  
  292.50  0.0000E+000  
  293.00  0.0000E+000  
  293.50  0.0000E+000  
  294.00  0.0000E+000  
  294.50  0.0000E+000  
  295.00  0.0000E+000  
  295.50  0.0000E+000  
  296.00  0.0000E+000  
  296.50  0.0000E+000  
  297.00  0.0000E+000  
  297.50  0.0000E+000  
  298.00  0.0000E+000  
  298.50  0.0000E+000  
  299.00  0.0000E+000  
  299.50  0.0000E+000  
  300.00  5.5816E-005  
  300.50  1.0809E-004  
  301.00  5.7224E-005  
  301.50  5.0888E-005  
  302.00  5.0141E-005  
  302.50  5.9908E-005  
  303.00  3.0480E-005  
  303.50  2.3523E-005  
  304.00  4.7591E-006  
  304.50  0.0000E+000  
  305.00  0.0000E+000  
  305.50  0.0000E+000  
  306.00  0.0000E+000  
  306.50  0.0000E+000  
  307.00  0.0000E+000  
  307.50  0.0000E+000  
  308.00  3.6057E-006  
  308.50  3.8791E-005  
  309.00  7.1798E-005  
  309.50  6.5403E-005  
  310.00  6.8122E-005  
  310.50  6.1103E-005  
  311.00  4.0998E-005  
  311.50  4.1895E-006  
  312.00  0.0000E+000  
  312.50  0.0000E+000  
  313.00  0.0000E+000  
  313.50  0.0000E+000  
  314.00  0.0000E+000  
  314.50  0.0000E+000  
  315.00  0.0000E+000  
  315.50  0.0000E+000  
  316.00  0.0000E+000  
  316.50  0.0000E+000  
  317.00  4.6699E-006  
  317.50  5.6819E-005  
  318.00  6.8698E-005  
  318.50  2.4928E-005  
  319.00  3.1318E-006  
  319.50  0.0000E+000  
  320.00  3.7598E-005  
  320.50  6.8887E-005  
  321.00  3.5311E-005  
  321.50  2.2240E-005  
  322.00  6.6079E-007  
  322.50  1.7038E-006  
  323.00  2.6789E-005  
  323.50  4.2170E-005  
  324.00  7.2081E-005  
  324.50  1.1888E-004  
  325.00  1.1363E-004  
  325.50  9.8708E-005  
  326.00  6.6035E-005  
  326.50  1.7301E-005  
  327.00  1.1945E-005  
  327.50  7.5413E-006  
  328.00  2.1664E-005  
  328.50  8.6330E-005  
  329.00  1.4383E-004  
  329.50  1.7723E-004  
  330.00  1.3685E-004  
  330.50  6.7657E-005  
  331.00  4.6865E-005  
  331.50  4.0338E-005  
  332.00  8.3583E-005  
  332.50  8.3328E-005  
  333.00  3.2827E-005  
  333.50  5.2252E-006  
  334.00  0.0000E+000  
  334.50  2.4764E-005  
  335.00  6.1540E-005  
  335.50  1.0858E-004  
  336.00  1.0695E-004  
  336.50  5.2910E-005  
  337.00  1.4368E-005  
  337.50  1.2477E-007  
  338.00  4.3325E-005  
  338.50  8.7385E-005  
  339.00  1.0249E-004  
  339.50  9.2502E-005  
  340.00  9.8006E-005  
  340.50  1.2454E-004  
  341.00  1.3669E-004  
  341.50  9.5692E-005  
  342.00  4.5083E-005  
  342.50  5.9367E-006  
  343.00  5.9553E-006  
  343.50  2.4412E-005  
  344.00  1.2729E-005  
  344.50  0.0000E+000  
  345.00  0.0000E+000  
  345.50  1.6102E-005  
  346.00  4.3883E-005  
  346.50  6.5517E-005  
  347.00  5.7345E-005  
  347.50  2.1150E-005  
  348.00  4.0917E-005  
  348.50  3.5897E-005  
  349.00  3.2063E-005  
  349.50  4.9435E-005  
  350.00  3.4212E-005  
  350.50  4.8665E-006  
  351.00  0.0000E+000  
  351.50  0.0000E+000  
  352.00  0.0000E+000  
  352.50  1.8141E-007  
  353.00  9.6629E-006  
  353.50  1.5587E-005  
  354.00  5.1009E-005  
  354.50  5.6265E-005  
  355.00  4.1584E-005  
  355.50  3.5698E-005  
  356.00  2.5595E-005  
  356.50  3.8325E-006  
  357.00  0.0000E+000  
  357.50  0.0000E+000  
  358.00  2.1313E-006  
  358.50  4.8684E-005  
  359.00  6.8182E-005  
  359.50  7.2587E-005  
  360.00  8.2887E-005  
  360.50  9.9768E-005  
  361.00  1.0257E-004  
  361.50  8.8428E-005  
  362.00  5.0164E-005  
  362.50  4.5531E-005  
  363.00  1.1020E-004  
  363.50  1.5881E-004  
  364.00  1.7088E-004  
  364.50  1.1259E-004  
  365.00  4.8805E-005  
  365.50  3.4531E-005  
  366.00  7.1131E-005  
  366.50  9.4328E-005  
  367.00  1.2650E-004  
  367.50  1.0423E-004  
  368.00  8.1389E-005  
  368.50  7.6567E-005  
  369.00  5.1452E-005  
  369.50  4.8257E-005  
  370.00  4.3975E-005  
  370.50  5.4495E-005  
  371.00  6.0477E-005  
  371.50  9.1444E-005  
  372.00  1.4434E-004  
  372.50  1.2030E-004  
  373.00  6.7129E-005  
  373.50  1.0968E-005  
  374.00  0.0000E+000  
  374.50  0.0000E+000  
  375.00  0.0000E+000  
  375.50  4.8851E-005  
  376.00  1.0758E-004  
  376.50  1.2736E-004  
  377.00  1.1957E-004  
  377.50  7.7504E-005  
  378.00  4.3149E-005  
  378.50  0.0000E+000  
  379.00  0.0000E+000  
  379.50  0.0000E+000  
  380.00  5.4746E-005  
  380.50  1.1356E-004  
  381.00  1.3203E-004  
  381.50  1.0584E-004  
  382.00  1.0407E-004  
  382.50  1.1304E-004  
  383.00  1.2519E-004  
  383.50  1.0461E-004  
  384.00  1.0355E-004  
  384.50  8.1845E-005  
  385.00  4.7636E-005  
  385.50  5.5080E-006  
  386.00  6.7237E-006  
  386.50  1.6170E-005  
  387.00  6.8109E-005  
  387.50  7.7534E-005  
  388.00  1.7431E-005  
  388.50  0.0000E+000  
  389.00  8.6343E-007  
  389.50  2.6738E-005  
  390.00  9.6140E-005  
  390.50  1.4984E-004  
  391.00  1.5385E-004  
  391.50  1.2556E-004  
  392.00  6.8608E-005  
  392.50  2.5013E-005  
  393.00  3.1600E-005  
  393.50  5.0950E-005  
  394.00  3.6783E-005  
  394.50  4.6760E-005  
  395.00  4.8724E-005  
  395.50  5.3393E-005  
  396.00  5.8605E-005  
  396.50  2.5668E-005  
  397.00  1.0019E-006  
  397.50  0.0000E+000  
  398.00  0.0000E+000  
  398.50  1.6583E-007  
  399.00  4.0424E-005  
  399.50  1.3109E-004  
  400.00  1.7268E-004  
  400.50  1.3758E-004  
  401.00  9.2655E-005  
  401.50  4.9495E-005  
  402.00  3.3303E-005  
  402.50  1.2208E-005  
  403.00  0.0000E+000  
  403.50  0.0000E+000  
  404.00  0.0000E+000  
  404.50  0.0000E+000  
  405.00  0.0000E+000  
  405.50  3.3671E-005  
  406.00  9.7902E-005  
  406.50  1.5667E-004  
  407.00  9.2487E-005  
  407.50  6.5309E-005  
  408.00  4.4748E-005  
  408.50  6.9153E-005  
  409.00  1.1022E-004  
  409.50  8.6092E-005  
  410.00  8.1528E-005  
  410.50  8.3947E-005  
  411.00  9.4373E-005  
  411.50  8.7157E-005  
  412.00  8.5126E-005  
  412.50  4.8438E-005  
  413.00  8.4700E-005  
  413.50  1.0638E-004  
  414.00  1.5857E-004  
  414.50  2.1340E-004  
  415.00  2.5176E-004  
  415.50  2.9130E-004  
  416.00  3.1757E-004  
  416.50  3.3920E-004  
  417.00  3.4845E-004  
  417.50  3.6108E-004  
  418.00  3.2308E-004  
  418.50  3.2423E-004  
  419.00  2.7806E-004  
  419.50  2.4504E-004  
  420.00  2.5918E-004  
  420.50  2.5557E-004  
  421.00  3.2928E-004  
  421.50  3.7831E-004  
  422.00  4.0012E-004  
  422.50  4.2667E-004  
  423.00  4.2329E-004  
  423.50  4.9104E-004  
  424.00  5.3078E-004  
  424.50  5.8229E-004  
  425.00  5.8079E-004  
  425.50  5.7624E-004  
  426.00  6.1151E-004  
  426.50  6.3008E-004  
  427.00  6.9359E-004  
  427.50  7.6145E-004  
  428.00  8.0756E-004  
  428.50  8.1998E-004  
  429.00  8.3125E-004  
  429.50  9.0287E-004  
  430.00  1.0012E-003  
  430.50  1.0868E-003  
  431.00  1.1735E-003  
  431.50  1.2652E-003  
  432.00  1.4022E-003  
  432.50  1.4929E-003  
  433.00  1.5155E-003  
  433.50  1.5515E-003  
  434.00  1.6096E-003  
  434.50  1.6874E-003  
  435.00  1.7447E-003  
  435.50  1.7688E-003  
  436.00  1.8753E-003  
  436.50  1.9991E-003  
  437.00  2.1092E-003  
  437.50  2.1843E-003  
  438.00  2.2215E-003  
  438.50  2.2997E-003  
  439.00  2.4503E-003  
  439.50  2.5835E-003  
  440.00  2.7383E-003  
  440.50  2.8455E-003  
  441.00  2.9112E-003  
  441.50  2.9553E-003  
  442.00  3.0288E-003  
  442.50  3.1099E-003  
  443.00  3.2422E-003  
  443.50  3.4179E-003  
  444.00  3.6005E-003  
  444.50  3.8225E-003  
  445.00  4.0034E-003  
  445.50  4.1887E-003  
  446.00  4.3498E-003  
  446.50  4.5509E-003  
  447.00  4.7203E-003  
  447.50  4.8916E-003  
  448.00  5.0425E-003  
  448.50  5.2136E-003  
  449.00  5.3868E-003  
  449.50  5.5696E-003  
  450.00  5.7193E-003  
  450.50  5.8494E-003  
  451.00  5.9857E-003  
  451.50  6.1047E-003  
  452.00  6.2135E-003  
  452.50  6.3598E-003  
  453.00  6.4408E-003  
  453.50  6.5506E-003  
  454.00  6.5910E-003  
  454.50  6.5518E-003  
  455.00  6.5387E-003  
  455.50  6.4400E-003  
  456.00  6.4013E-003  
  456.50  6.3718E-003  
  457.00  6.3730E-003  
  457.50  6.3809E-003  
  458.00  6.2920E-003  
  458.50  6.1598E-003  
  459.00  6.0009E-003  
  459.50  5.8320E-003  
  460.00  5.6828E-003  
  460.50  5.5312E-003  
  461.00  5.4135E-003  
  461.50  5.3565E-003  
  462.00  5.2732E-003  
  462.50  5.2042E-003  
  463.00  5.1262E-003  
  463.50  5.0595E-003  
  464.00  4.9686E-003  
  464.50  4.8395E-003  
  465.00  4.6948E-003  
  465.50  4.5734E-003  
  466.00  4.4945E-003  
  466.50  4.4053E-003  
  467.00  4.3483E-003  
  467.50  4.3029E-003  
  468.00  4.2328E-003  
  468.50  4.1643E-003  
  469.00  4.0511E-003  
  469.50  3.9066E-003  
  470.00  3.8522E-003  
  470.50  3.8231E-003  
  471.00  3.8081E-003  
  471.50  3.7766E-003  
  472.00  3.6659E-003  
  472.50  3.6181E-003  
  473.00  3.6098E-003  
  473.50  3.5893E-003  
  474.00  3.5556E-003  
  474.50  3.4631E-003  
  475.00  3.3503E-003  
  475.50  3.2669E-003  
  476.00  3.2076E-003  
  476.50  3.2003E-003  
  477.00  3.1645E-003  
  477.50  3.1538E-003  
  478.00  3.0973E-003  
  478.50  3.0668E-003  
  479.00  2.9642E-003  
  479.50  2.8813E-003  
  480.00  2.8365E-003  
  480.50  2.8050E-003  
  481.00  2.7864E-003  
  481.50  2.6946E-003  
  482.00  2.6415E-003  
  482.50  2.6040E-003  
  483.00  2.5713E-003  
  483.50  2.5705E-003  
  484.00  2.5585E-003  
  484.50  2.5877E-003  
  485.00  2.5742E-003  
  485.50  2.5380E-003  
  486.00  2.5164E-003  
  486.50  2.4966E-003  
  487.00  2.4778E-003  
  487.50  2.4385E-003  
  488.00  2.4178E-003  
  488.50  2.4280E-003  
  489.00  2.4476E-003  
  489.50  2.4617E-003  
  490.00  2.4578E-003  
  490.50  2.4623E-003  
  491.00  2.4715E-003  
  491.50  2.4462E-003  
  492.00  2.4580E-003  
  492.50  2.4812E-003  
  493.00  2.5235E-003  
  493.50  2.5474E-003  
  494.00  2.5490E-003  
  494.50  2.5486E-003  
  495.00  2.5582E-003  
  495.50  2.5869E-003  
  496.00  2.6062E-003  
  496.50  2.6228E-003  
  497.00  2.6526E-003  
  497.50  2.6944E-003  
  498.00  2.7558E-003  
  498.50  2.8052E-003  
  499.00  2.8382E-003  
  499.50  2.8769E-003  
  500.00  2.9276E-003  
  500.50  2.9494E-003  
  501.00  2.9710E-003  
  501.50  2.9978E-003  
  502.00  3.0617E-003  
  502.50  3.1317E-003  
  503.00  3.1685E-003  
  503.50  3.2139E-003  
  504.00  3.2722E-003  
  504.50  3.3474E-003  
  505.00  3.4039E-003  
  505.50  3.4560E-003  
  506.00  3.5282E-003  
  506.50  3.5966E-003  
  507.00  3.6570E-003  
  507.50  3.7173E-003  
  508.00  3.7779E-003  
  508.50  3.8452E-003  
  509.00  3.9206E-003  
  509.50  3.9958E-003  
  510.00  4.0741E-003  
  510.50  4.1434E-003  
  511.00  4.2134E-003  
  511.50  4.2749E-003  
  512.00  4.3508E-003  
  512.50  4.3965E-003  
  513.00  4.4522E-003  
  513.50  4.5279E-003  
  514.00  4.6187E-003  
  514.50  4.7291E-003  
  515.00  4.8077E-003  
  515.50  4.8896E-003  
  516.00  4.9575E-003  
  516.50  5.0507E-003  
  517.00  5.1247E-003  
  517.50  5.2147E-003  
  518.00  5.2716E-003  
  518.50  5.3362E-003  
  519.00  5.4177E-003  
  519.50  5.4755E-003  
  520.00  5.5383E-003  
  520.50  5.5890E-003  
  521.00  5.6510E-003  
  521.50  5.7322E-003  
  522.00  5.7742E-003  
  522.50  5.8359E-003  
  523.00  5.9100E-003  
  523.50  5.9717E-003  
  524.00  6.0393E-003  
  524.50  6.0809E-003  
  525.00  6.1355E-003  
  525.50  6.2302E-003  
  526.00  6.3247E-003  
  526.50  6.4286E-003  
  527.00  6.5357E-003  
  527.50  6.5816E-003  
  528.00  6.6377E-003  
  528.50  6.6872E-003  
  529.00  6.7567E-003  
  529.50  6.8501E-003  
  530.00  6.9159E-003  
  530.50  6.9803E-003  
  531.00  7.0231E-003  
  531.50  7.0716E-003  
  532.00  7.1346E-003  
  532.50  7.1924E-003  
  533.00  7.2291E-003  
  533.50  7.2499E-003  
  534.00  7.2758E-003  
  534.50  7.3535E-003  
  535.00  7.4699E-003  
  535.50  7.5584E-003  
  536.00  7.6155E-003  
  536.50  7.6616E-003  
  537.00  7.7081E-003  
  537.50  7.7638E-003  
  538.00  7.7957E-003  
  538.50  7.8539E-003  
  539.00  7.9016E-003  
  539.50  7.9927E-003  
  540.00  8.0527E-003  
  540.50  8.0983E-003  
  541.00  8.1469E-003  
  541.50  8.2062E-003  
  542.00  8.2728E-003  
  542.50  8.3214E-003  
  543.00  8.3141E-003  
  543.50  8.3347E-003  
  544.00  8.3910E-003  
  544.50  8.5056E-003  
  545.00  8.5802E-003  
  545.50  8.6624E-003  
  546.00  8.7120E-003  
  546.50  8.7314E-003  
  547.00  8.7592E-003  
  547.50  8.7802E-003  
  548.00  8.8439E-003  
  548.50  8.9378E-003  
  549.00  9.0154E-003  
  549.50  9.0823E-003  
  550.00  9.1398E-003  
  550.50  9.1972E-003  
  551.00  9.2714E-003  
  551.50  9.3379E-003  
  552.00  9.4140E-003  
  552.50  9.4482E-003  
  553.00  9.4757E-003  
  553.50  9.5063E-003  
  554.00  9.5744E-003  
  554.50  9.6744E-003  
  555.00  9.7485E-003  
  555.50  9.8292E-003  
  556.00  9.8528E-003  
  556.50  9.8949E-003  
  557.00  9.9266E-003  
  557.50  9.9946E-003  
  558.00  1.0099E-002  
  558.50  1.0164E-002  
  559.00  1.0239E-002  
  559.50  1.0284E-002  
  560.00  1.0352E-002  
  560.50  1.0380E-002  
  561.00  1.0379E-002  
  561.50  1.0385E-002  
  562.00  1.0437E-002  
  562.50  1.0506E-002  
  563.00  1.0551E-002  
  563.50  1.0594E-002  
  564.00  1.0655E-002  
  564.50  1.0714E-002  
  565.00  1.0729E-002  
  565.50  1.0739E-002  
  566.00  1.0807E-002  
  566.50  1.0956E-002  
  567.00  1.1090E-002  
  567.50  1.1159E-002  
  568.00  1.1190E-002  
  568.50  1.1238E-002  
  569.00  1.1328E-002  
  569.50  1.1383E-002  
  570.00  1.1423E-002  
  570.50  1.1435E-002  
  571.00  1.1488E-002  
  571.50  1.1523E-002  
  572.00  1.1557E-002  
  572.50  1.1592E-002  
  573.00  1.1652E-002  
  573.50  1.1674E-002  
  574.00  1.1718E-002  
  574.50  1.1764E-002  
  575.00  1.1864E-002  
  575.50  1.1947E-002  
  576.00  1.2031E-002  
  576.50  1.2104E-002  
  577.00  1.2192E-002  
  577.50  1.2218E-002  
  578.00  1.2172E-002  
  578.50  1.2133E-002  
  579.00  1.2153E-002  
  579.50  1.2220E-002  
  580.00  1.2304E-002  
  580.50  1.2383E-002  
  581.00  1.2469E-002  
  581.50  1.2510E-002  
  582.00  1.2538E-002  
  582.50  1.2551E-002  
  583.00  1.2600E-002  
  583.50  1.2659E-002  
  584.00  1.2736E-002  
  584.50  1.2805E-002  
  585.00  1.2827E-002  
  585.50  1.2807E-002  
  586.00  1.2822E-002  
  586.50  1.2894E-002  
  587.00  1.2984E-002  
  587.50  1.3005E-002  
  588.00  1.2950E-002  
  588.50  1.2935E-002  
  589.00  1.3000E-002  
  589.50  1.3107E-002  
  590.00  1.3172E-002  
  590.50  1.3163E-002  
  591.00  1.3143E-002  
  591.50  1.3117E-002  
  592.00  1.3143E-002  
  592.50  1.3213E-002  
  593.00  1.3283E-002  
  593.50  1.3291E-002  
  594.00  1.3295E-002  
  594.50  1.3318E-002  
  595.00  1.3343E-002  
  595.50  1.3324E-002  
  596.00  1.3326E-002  
  596.50  1.3334E-002  
  597.00  1.3344E-002  
  597.50  1.3300E-002  
  598.00  1.3269E-002  
  598.50  1.3274E-002  
  599.00  1.3333E-002  
  599.50  1.3364E-002  
  600.00  1.3365E-002  
  600.50  1.3341E-002  
  601.00  1.3323E-002  
  601.50  1.3365E-002  
  602.00  1.3373E-002  
  602.50  1.3332E-002  
  603.00  1.3255E-002  
  603.50  1.3115E-002  
  604.00  1.3048E-002  
  604.50  1.3016E-002  
  605.00  1.3086E-002  
  605.50  1.3154E-002  
  606.00  1.3156E-002  
  606.50  1.3114E-002  
  607.00  1.3052E-002  
  607.50  1.3007E-002  
  608.00  1.2987E-002  
  608.50  1.2993E-002  
  609.00  1.3039E-002  
  609.50  1.3073E-002  
  610.00  1.3064E-002  
  610.50  1.3023E-002  
  611.00  1.2934E-002  
  611.50  1.2850E-002  
  612.00  1.2775E-002  
  612.50  1.2693E-002  
  613.00  1.2682E-002  
  613.50  1.2636E-002  
  614.00  1.2640E-002  
  614.50  1.2611E-002  
  615.00  1.2578E-002  
  615.50  1.2534E-002  
  616.00  1.2452E-002  
  616.50  1.2355E-002  
  617.00  1.2344E-002  
  617.50  1.2373E-002  
  618.00  1.2429E-002  
  618.50  1.2376E-002  
  619.00  1.2265E-002  
  619.50  1.2160E-002  
  620.00  1.2034E-002  
  620.50  1.1900E-002  
  621.00  1.1842E-002  
  621.50  1.1840E-002  
  622.00  1.1832E-002  
  622.50  1.1744E-002  
  623.00  1.1665E-002  
  623.50  1.1677E-002  
  624.00  1.1688E-002  
  624.50  1.1614E-002  
  625.00  1.1483E-002  
  625.50  1.1415E-002  
  626.00  1.1386E-002  
  626.50  1.1363E-002  
  627.00  1.1294E-002  
  627.50  1.1211E-002  
  628.00  1.1131E-002  
  628.50  1.1029E-002  
  629.00  1.1004E-002  
  629.50  1.0965E-002  
  630.00  1.0873E-002  
  630.50  1.0747E-002  
  631.00  1.0630E-002  
  631.50  1.0607E-002  
  632.00  1.0554E-002  
  632.50  1.0493E-002  
  633.00  1.0401E-002  
  633.50  1.0319E-002  
  634.00  1.0297E-002  
  634.50  1.0261E-002  
  635.00  1.0233E-002  
  635.50  1.0135E-002  
  636.00  1.0019E-002  
  636.50  9.9062E-003  
  637.00  9.8573E-003  
  637.50  9.8270E-003  
  638.00  9.7513E-003  
  638.50  9.6257E-003  
  639.00  9.5640E-003  
  639.50  9.5534E-003  
  640.00  9.5261E-003  
  640.50  9.3654E-003  
  641.00  9.2127E-003  
  641.50  9.0565E-003  
  642.00  9.0068E-003  
  642.50  8.9209E-003  
  643.00  8.8301E-003  
  643.50  8.7216E-003  
  644.00  8.6553E-003  
  644.50  8.6333E-003  
  645.00  8.6301E-003  
  645.50  8.6210E-003  
  646.00  8.5307E-003  
  646.50  8.4050E-003  
  647.00  8.2912E-003  
  647.50  8.2258E-003  
  648.00  8.1837E-003  
  648.50  8.0733E-003  
  649.00  8.0010E-003  
  649.50  7.8884E-003  
  650.00  7.8056E-003  
  650.50  7.6702E-003  
  651.00  7.6205E-003  
  651.50  7.5511E-003  
  652.00  7.4889E-003  
  652.50  7.4239E-003  
  653.00  7.3500E-003  
  653.50  7.2421E-003  
  654.00  7.1398E-003  
  654.50  7.0821E-003  
  655.00  7.0653E-003  
  655.50  7.0192E-003  
  656.00  6.9590E-003  
  656.50  6.9406E-003  
  657.00  6.8521E-003  
  657.50  6.7534E-003  
  658.00  6.6405E-003  
  658.50  6.5606E-003  
  659.00  6.4913E-003  
  659.50  6.4651E-003  
  660.00  6.4030E-003  
  660.50  6.3254E-003  
  661.00  6.1978E-003  
  661.50  6.0980E-003  
  662.00  6.0456E-003  
  662.50  5.9920E-003  
  663.00  6.0022E-003  
  663.50  5.9650E-003  
  664.00  5.8997E-003  
  664.50  5.8014E-003  
  665.00  5.7234E-003  
  665.50  5.6577E-003  
  666.00  5.5876E-003  
  666.50  5.5695E-003  
  667.00  5.4999E-003  
  667.50  5.3823E-003  
  668.00  5.2110E-003  
  668.50  5.1318E-003  
  669.00  5.1182E-003  
  669.50  5.1122E-003  
  670.00  5.1003E-003  
  670.50  5.0810E-003  
  671.00  5.0238E-003  
  671.50  4.9095E-003  
  672.00  4.7515E-003  
  672.50  4.6185E-003  
  673.00  4.5431E-003  
  673.50  4.4912E-003  
  674.00  4.4764E-003  
  674.50  4.4369E-003  
  675.00  4.4061E-003  
  675.50  4.4090E-003  
  676.00  4.3583E-003  
  676.50  4.3214E-003  
  677.00  4.2600E-003  
  677.50  4.2679E-003  
  678.00  4.2214E-003  
  678.50  4.2087E-003  
  679.00  4.1925E-003  
  679.50  4.1143E-003  
  680.00  4.0122E-003  
