
# From lspdd.org
# 
# Name: Halo Globe Vanity Domestique
# Indice spectral Valeur 
# MSI 0.29 
# SLI 0.52 
# IPI 0.91 
# Pourcentage de bleu 13.4 
# Caractéristique Valeur 
# CCT calculée (K) 2730 
# CCT du fabricant (K) 3000 
# Tension (V) 120 
# Puissance (W) 29.0 
# Efficacité lumineuse (Lum/W) 11.9 
#
# Image: '/app/system/img_2s/2596/medium_image2.JPG?1413486563'
# Image: '/app/system/img_1s/2596/medium_image1.jpg?1413486564'
# 

  273.00  0.0000E+000  
  273.50  0.0000E+000  
  274.00  0.0000E+000  
  274.50  0.0000E+000  
  275.00  0.0000E+000  
  275.50  0.0000E+000  
  276.00  0.0000E+000  
  276.50  0.0000E+000  
  277.00  0.0000E+000  
  277.50  0.0000E+000  
  278.00  0.0000E+000  
  278.50  0.0000E+000  
  279.00  0.0000E+000  
  279.50  0.0000E+000  
  280.00  0.0000E+000  
  280.50  0.0000E+000  
  281.00  0.0000E+000  
  281.50  0.0000E+000  
  282.00  0.0000E+000  
  282.50  0.0000E+000  
  283.00  0.0000E+000  
  283.50  0.0000E+000  
  284.00  0.0000E+000  
  284.50  0.0000E+000  
  285.00  0.0000E+000  
  285.50  0.0000E+000  
  286.00  0.0000E+000  
  286.50  0.0000E+000  
  287.00  0.0000E+000  
  287.50  0.0000E+000  
  288.00  0.0000E+000  
  288.50  0.0000E+000  
  289.00  0.0000E+000  
  289.50  0.0000E+000  
  290.00  0.0000E+000  
  290.50  0.0000E+000  
  291.00  0.0000E+000  
  291.50  0.0000E+000  
  292.00  0.0000E+000  
  292.50  0.0000E+000  
  293.00  0.0000E+000  
  293.50  0.0000E+000  
  294.00  0.0000E+000  
  294.50  0.0000E+000  
  295.00  0.0000E+000  
  295.50  0.0000E+000  
  296.00  0.0000E+000  
  296.50  0.0000E+000  
  297.00  0.0000E+000  
  297.50  0.0000E+000  
  298.00  0.0000E+000  
  298.50  0.0000E+000  
  299.00  0.0000E+000  
  299.50  0.0000E+000  
  300.00  0.0000E+000  
  300.50  0.0000E+000  
  301.00  0.0000E+000  
  301.50  0.0000E+000  
  302.00  0.0000E+000  
  302.50  0.0000E+000  
  303.00  0.0000E+000  
  303.50  0.0000E+000  
  304.00  0.0000E+000  
  304.50  0.0000E+000  
  305.00  0.0000E+000  
  305.50  0.0000E+000  
  306.00  0.0000E+000  
  306.50  0.0000E+000  
  307.00  0.0000E+000  
  307.50  0.0000E+000  
  308.00  0.0000E+000  
  308.50  0.0000E+000  
  309.00  0.0000E+000  
  309.50  0.0000E+000  
  310.00  0.0000E+000  
  310.50  0.0000E+000  
  311.00  0.0000E+000  
  311.50  0.0000E+000  
  312.00  0.0000E+000  
  312.50  0.0000E+000  
  313.00  0.0000E+000  
  313.50  0.0000E+000  
  314.00  0.0000E+000  
  314.50  0.0000E+000  
  315.00  0.0000E+000  
  315.50  0.0000E+000  
  316.00  0.0000E+000  
  316.50  0.0000E+000  
  317.00  0.0000E+000  
  317.50  0.0000E+000  
  318.00  0.0000E+000  
  318.50  0.0000E+000  
  319.00  0.0000E+000  
  319.50  0.0000E+000  
  320.00  0.0000E+000  
  320.50  0.0000E+000  
  321.00  0.0000E+000  
  321.50  0.0000E+000  
  322.00  0.0000E+000  
  322.50  0.0000E+000  
  323.00  0.0000E+000  
  323.50  0.0000E+000  
  324.00  0.0000E+000  
  324.50  0.0000E+000  
  325.00  0.0000E+000  
  325.50  0.0000E+000  
  326.00  0.0000E+000  
  326.50  0.0000E+000  
  327.00  0.0000E+000  
  327.50  0.0000E+000  
  328.00  0.0000E+000  
  328.50  0.0000E+000  
  329.00  0.0000E+000  
  329.50  0.0000E+000  
  330.00  0.0000E+000  
  330.50  0.0000E+000  
  331.00  0.0000E+000  
  331.50  0.0000E+000  
  332.00  0.0000E+000  
  332.50  0.0000E+000  
  333.00  0.0000E+000  
  333.50  0.0000E+000  
  334.00  0.0000E+000  
  334.50  0.0000E+000  
  335.00  0.0000E+000  
  335.50  0.0000E+000  
  336.00  0.0000E+000  
  336.50  0.0000E+000  
  337.00  0.0000E+000  
  337.50  0.0000E+000  
  338.00  0.0000E+000  
  338.50  0.0000E+000  
  339.00  0.0000E+000  
  339.50  0.0000E+000  
  340.00  0.0000E+000  
  340.50  0.0000E+000  
  341.00  0.0000E+000  
  341.50  0.0000E+000  
  342.00  0.0000E+000  
  342.50  0.0000E+000  
  343.00  0.0000E+000  
  343.50  0.0000E+000  
  344.00  0.0000E+000  
  344.50  0.0000E+000  
  345.00  0.0000E+000  
  345.50  0.0000E+000  
  346.00  0.0000E+000  
  346.50  0.0000E+000  
  347.00  0.0000E+000  
  347.50  0.0000E+000  
  348.00  0.0000E+000  
  348.50  0.0000E+000  
  349.00  0.0000E+000  
  349.50  0.0000E+000  
  350.00  0.0000E+000  
  350.50  0.0000E+000  
  351.00  0.0000E+000  
  351.50  0.0000E+000  
  352.00  0.0000E+000  
  352.50  0.0000E+000  
  353.00  0.0000E+000  
  353.50  0.0000E+000  
  354.00  0.0000E+000  
  354.50  0.0000E+000  
  355.00  0.0000E+000  
  355.50  0.0000E+000  
  356.00  0.0000E+000  
  356.50  0.0000E+000  
  357.00  0.0000E+000  
  357.50  0.0000E+000  
  358.00  0.0000E+000  
  358.50  0.0000E+000  
  359.00  0.0000E+000  
  359.50  0.0000E+000  
  360.00  0.0000E+000  
  360.50  0.0000E+000  
  361.00  0.0000E+000  
  361.50  0.0000E+000  
  362.00  0.0000E+000  
  362.50  0.0000E+000  
  363.00  0.0000E+000  
  363.50  0.0000E+000  
  364.00  0.0000E+000  
  364.50  0.0000E+000  
  365.00  0.0000E+000  
  365.50  0.0000E+000  
  366.00  0.0000E+000  
  366.50  0.0000E+000  
  367.00  0.0000E+000  
  367.50  0.0000E+000  
  368.00  0.0000E+000  
  368.50  0.0000E+000  
  369.00  0.0000E+000  
  369.50  0.0000E+000  
  370.00  0.0000E+000  
  370.50  0.0000E+000  
  371.00  0.0000E+000  
  371.50  0.0000E+000  
  372.00  0.0000E+000  
  372.50  0.0000E+000  
  373.00  0.0000E+000  
  373.50  0.0000E+000  
  374.00  0.0000E+000  
  374.50  0.0000E+000  
  375.00  0.0000E+000  
  375.50  0.0000E+000  
  376.00  0.0000E+000  
  376.50  0.0000E+000  
  377.00  0.0000E+000  
  377.50  0.0000E+000  
  378.00  0.0000E+000  
  378.50  0.0000E+000  
  379.00  0.0000E+000  
  379.50  0.0000E+000  
  380.00  0.0000E+000  
  380.50  0.0000E+000  
  381.00  0.0000E+000  
  381.50  0.0000E+000  
  382.00  0.0000E+000  
  382.50  0.0000E+000  
  383.00  0.0000E+000  
  383.50  0.0000E+000  
  384.00  0.0000E+000  
  384.50  0.0000E+000  
  385.00  0.0000E+000  
  385.50  0.0000E+000  
  386.00  0.0000E+000  
  386.50  0.0000E+000  
  387.00  1.3344E-005  
  387.50  8.3933E-005  
  388.00  1.3531E-004  
  388.50  1.3324E-004  
  389.00  7.3387E-005  
  389.50  5.8618E-006  
  390.00  0.0000E+000  
  390.50  3.3792E-005  
  391.00  5.4108E-005  
  391.50  7.7764E-005  
  392.00  3.7064E-005  
  392.50  4.8747E-005  
  393.00  1.0542E-004  
  393.50  1.5511E-004  
  394.00  2.2963E-004  
  394.50  2.1703E-004  
  395.00  2.1712E-004  
  395.50  1.8699E-004  
  396.00  1.5352E-004  
  396.50  1.4819E-004  
  397.00  1.9499E-004  
  397.50  2.9956E-004  
  398.00  3.7176E-004  
  398.50  4.2212E-004  
  399.00  4.4587E-004  
  399.50  4.6021E-004  
  400.00  4.6520E-004  
  400.50  5.0264E-004  
  401.00  5.4168E-004  
  401.50  6.3757E-004  
  402.00  7.6159E-004  
  402.50  8.4209E-004  
  403.00  9.4707E-004  
  403.50  1.0416E-003  
  404.00  1.0936E-003  
  404.50  1.1384E-003  
  405.00  1.1372E-003  
  405.50  1.1580E-003  
  406.00  1.2375E-003  
  406.50  1.2932E-003  
  407.00  1.3779E-003  
  407.50  1.4260E-003  
  408.00  1.4709E-003  
  408.50  1.5434E-003  
  409.00  1.6102E-003  
  409.50  1.6724E-003  
  410.00  1.7181E-003  
  410.50  1.7591E-003  
  411.00  1.8067E-003  
  411.50  1.8703E-003  
  412.00  1.9582E-003  
  412.50  2.0625E-003  
  413.00  2.1722E-003  
  413.50  2.2506E-003  
  414.00  2.2701E-003  
  414.50  2.2495E-003  
  415.00  2.2196E-003  
  415.50  2.2666E-003  
  416.00  2.2862E-003  
  416.50  2.3105E-003  
  417.00  2.3194E-003  
  417.50  2.3049E-003  
  418.00  2.3292E-003  
  418.50  2.3609E-003  
  419.00  2.3612E-003  
  419.50  2.3652E-003  
  420.00  2.3234E-003  
  420.50  2.3192E-003  
  421.00  2.3588E-003  
  421.50  2.4438E-003  
  422.00  2.5388E-003  
  422.50  2.6198E-003  
  423.00  2.6772E-003  
  423.50  2.6743E-003  
  424.00  2.6876E-003  
  424.50  2.6920E-003  
  425.00  2.7693E-003  
  425.50  2.8591E-003  
  426.00  2.9097E-003  
  426.50  2.9074E-003  
  427.00  2.8901E-003  
  427.50  2.8760E-003  
  428.00  2.9583E-003  
  428.50  3.0280E-003  
  429.00  3.0993E-003  
  429.50  3.1871E-003  
  430.00  3.1860E-003  
  430.50  3.2005E-003  
  431.00  3.1680E-003  
  431.50  3.1355E-003  
  432.00  3.1807E-003  
  432.50  3.2470E-003  
  433.00  3.3156E-003  
  433.50  3.3513E-003  
  434.00  3.3067E-003  
  434.50  3.2280E-003  
  435.00  3.1872E-003  
  435.50  3.2452E-003  
  436.00  3.3941E-003  
  436.50  3.4918E-003  
  437.00  3.5517E-003  
  437.50  3.5220E-003  
  438.00  3.4888E-003  
  438.50  3.5048E-003  
  439.00  3.5288E-003  
  439.50  3.5839E-003  
  440.00  3.6615E-003  
  440.50  3.7216E-003  
  441.00  3.7492E-003  
  441.50  3.7701E-003  
  442.00  3.7994E-003  
  442.50  3.7944E-003  
  443.00  3.8371E-003  
  443.50  3.8013E-003  
  444.00  3.8219E-003  
  444.50  3.8732E-003  
  445.00  3.9102E-003  
  445.50  3.9943E-003  
  446.00  4.0468E-003  
  446.50  4.1199E-003  
  447.00  4.1353E-003  
  447.50  4.1126E-003  
  448.00  4.0799E-003  
  448.50  4.0741E-003  
  449.00  4.1206E-003  
  449.50  4.1761E-003  
  450.00  4.2721E-003  
  450.50  4.3082E-003  
  451.00  4.3299E-003  
  451.50  4.3445E-003  
  452.00  4.3617E-003  
  452.50  4.4334E-003  
  453.00  4.5140E-003  
  453.50  4.5030E-003  
  454.00  4.5304E-003  
  454.50  4.5427E-003  
  455.00  4.5644E-003  
  455.50  4.6253E-003  
  456.00  4.6395E-003  
  456.50  4.6808E-003  
  457.00  4.7537E-003  
  457.50  4.7760E-003  
  458.00  4.8447E-003  
  458.50  4.8405E-003  
  459.00  4.8315E-003  
  459.50  4.8302E-003  
  460.00  4.8647E-003  
  460.50  4.9333E-003  
  461.00  5.0130E-003  
  461.50  5.0648E-003  
  462.00  5.0936E-003  
  462.50  5.1591E-003  
  463.00  5.2670E-003  
  463.50  5.3565E-003  
  464.00  5.3842E-003  
  464.50  5.3710E-003  
  465.00  5.3605E-003  
  465.50  5.3877E-003  
  466.00  5.4507E-003  
  466.50  5.5153E-003  
  467.00  5.5630E-003  
  467.50  5.6361E-003  
  468.00  5.7040E-003  
  468.50  5.7562E-003  
  469.00  5.7639E-003  
  469.50  5.7500E-003  
  470.00  5.7190E-003  
  470.50  5.7090E-003  
  471.00  5.7388E-003  
  471.50  5.7948E-003  
  472.00  5.8883E-003  
  472.50  5.9541E-003  
  473.00  6.0190E-003  
  473.50  6.0624E-003  
  474.00  6.1082E-003  
  474.50  6.1837E-003  
  475.00  6.2138E-003  
  475.50  6.2264E-003  
  476.00  6.2376E-003  
  476.50  6.2409E-003  
  477.00  6.2711E-003  
  477.50  6.3367E-003  
  478.00  6.4031E-003  
  478.50  6.4908E-003  
  479.00  6.5345E-003  
  479.50  6.5990E-003  
  480.00  6.6399E-003  
  480.50  6.6376E-003  
  481.00  6.5994E-003  
  481.50  6.6026E-003  
  482.00  6.6560E-003  
  482.50  6.7453E-003  
  483.00  6.8130E-003  
  483.50  6.8883E-003  
  484.00  6.9654E-003  
  484.50  7.0115E-003  
  485.00  7.0271E-003  
  485.50  7.0338E-003  
  486.00  7.0804E-003  
  486.50  7.1436E-003  
  487.00  7.2010E-003  
  487.50  7.2412E-003  
  488.00  7.2621E-003  
  488.50  7.2769E-003  
  489.00  7.2869E-003  
  489.50  7.3326E-003  
  490.00  7.3892E-003  
  490.50  7.4397E-003  
  491.00  7.5049E-003  
  491.50  7.5874E-003  
  492.00  7.6756E-003  
  492.50  7.7272E-003  
  493.00  7.7640E-003  
  493.50  7.8201E-003  
  494.00  7.8865E-003  
  494.50  7.9540E-003  
  495.00  7.9859E-003  
  495.50  8.0355E-003  
  496.00  8.0782E-003  
  496.50  8.1764E-003  
  497.00  8.2387E-003  
  497.50  8.3040E-003  
  498.00  8.3343E-003  
  498.50  8.3449E-003  
  499.00  8.4091E-003  
  499.50  8.4554E-003  
  500.00  8.5585E-003  
  500.50  8.6138E-003  
  501.00  8.6672E-003  
  501.50  8.7168E-003  
  502.00  8.7577E-003  
  502.50  8.8218E-003  
  503.00  8.8774E-003  
  503.50  8.9513E-003  
  504.00  9.0314E-003  
  504.50  9.1089E-003  
  505.00  9.1593E-003  
  505.50  9.2084E-003  
  506.00  9.2967E-003  
  506.50  9.3924E-003  
  507.00  9.4914E-003  
  507.50  9.5541E-003  
  508.00  9.5714E-003  
  508.50  9.5964E-003  
  509.00  9.6542E-003  
  509.50  9.7488E-003  
  510.00  9.8342E-003  
  510.50  9.8833E-003  
  511.00  9.9425E-003  
  511.50  1.0019E-002  
  512.00  1.0142E-002  
  512.50  1.0267E-002  
  513.00  1.0347E-002  
  513.50  1.0404E-002  
  514.00  1.0436E-002  
  514.50  1.0497E-002  
  515.00  1.0592E-002  
  515.50  1.0678E-002  
  516.00  1.0754E-002  
  516.50  1.0832E-002  
  517.00  1.0930E-002  
  517.50  1.1023E-002  
  518.00  1.1104E-002  
  518.50  1.1181E-002  
  519.00  1.1257E-002  
  519.50  1.1317E-002  
  520.00  1.1351E-002  
  520.50  1.1408E-002  
  521.00  1.1512E-002  
  521.50  1.1641E-002  
  522.00  1.1746E-002  
  522.50  1.1812E-002  
  523.00  1.1912E-002  
  523.50  1.1991E-002  
  524.00  1.2093E-002  
  524.50  1.2147E-002  
  525.00  1.2195E-002  
  525.50  1.2255E-002  
  526.00  1.2325E-002  
  526.50  1.2395E-002  
  527.00  1.2473E-002  
  527.50  1.2511E-002  
  528.00  1.2585E-002  
  528.50  1.2669E-002  
  529.00  1.2783E-002  
  529.50  1.2875E-002  
  530.00  1.2955E-002  
  530.50  1.3023E-002  
  531.00  1.3112E-002  
  531.50  1.3204E-002  
  532.00  1.3303E-002  
  532.50  1.3403E-002  
  533.00  1.3495E-002  
  533.50  1.3564E-002  
  534.00  1.3627E-002  
  534.50  1.3714E-002  
  535.00  1.3813E-002  
  535.50  1.3930E-002  
  536.00  1.4029E-002  
  536.50  1.4120E-002  
  537.00  1.4182E-002  
  537.50  1.4229E-002  
  538.00  1.4311E-002  
  538.50  1.4416E-002  
  539.00  1.4567E-002  
  539.50  1.4663E-002  
  540.00  1.4709E-002  
  540.50  1.4773E-002  
  541.00  1.4838E-002  
  541.50  1.4961E-002  
  542.00  1.5060E-002  
  542.50  1.5130E-002  
  543.00  1.5237E-002  
  543.50  1.5315E-002  
  544.00  1.5419E-002  
  544.50  1.5509E-002  
  545.00  1.5579E-002  
  545.50  1.5628E-002  
  546.00  1.5659E-002  
  546.50  1.5716E-002  
  547.00  1.5826E-002  
  547.50  1.5916E-002  
  548.00  1.6020E-002  
  548.50  1.6125E-002  
  549.00  1.6237E-002  
  549.50  1.6245E-002  
  550.00  1.6231E-002  
  550.50  1.6252E-002  
  551.00  1.6405E-002  
  551.50  1.6547E-002  
  552.00  1.6616E-002  
  552.50  1.6702E-002  
  553.00  1.6776E-002  
  553.50  1.6937E-002  
  554.00  1.7003E-002  
  554.50  1.7096E-002  
  555.00  1.7170E-002  
  555.50  1.7275E-002  
  556.00  1.7351E-002  
  556.50  1.7385E-002  
  557.00  1.7434E-002  
  557.50  1.7517E-002  
  558.00  1.7608E-002  
  558.50  1.7690E-002  
  559.00  1.7733E-002  
  559.50  1.7817E-002  
  560.00  1.7943E-002  
  560.50  1.8074E-002  
  561.00  1.8166E-002  
  561.50  1.8291E-002  
  562.00  1.8434E-002  
  562.50  1.8547E-002  
  563.00  1.8521E-002  
  563.50  1.8435E-002  
  564.00  1.8419E-002  
  564.50  1.8529E-002  
  565.00  1.8714E-002  
  565.50  1.8878E-002  
  566.00  1.8993E-002  
  566.50  1.9081E-002  
  567.00  1.9117E-002  
  567.50  1.9191E-002  
  568.00  1.9247E-002  
  568.50  1.9319E-002  
  569.00  1.9371E-002  
  569.50  1.9405E-002  
  570.00  1.9415E-002  
  570.50  1.9474E-002  
  571.00  1.9570E-002  
  571.50  1.9709E-002  
  572.00  1.9827E-002  
  572.50  1.9827E-002  
  573.00  1.9825E-002  
  573.50  1.9837E-002  
  574.00  1.9946E-002  
  574.50  2.0052E-002  
  575.00  2.0093E-002  
  575.50  2.0157E-002  
  576.00  2.0219E-002  
  576.50  2.0371E-002  
  577.00  2.0461E-002  
  577.50  2.0550E-002  
  578.00  2.0624E-002  
  578.50  2.0686E-002  
  579.00  2.0731E-002  
  579.50  2.0711E-002  
  580.00  2.0764E-002  
  580.50  2.0899E-002  
  581.00  2.1043E-002  
  581.50  2.1159E-002  
  582.00  2.1121E-002  
  582.50  2.1100E-002  
  583.00  2.1110E-002  
  583.50  2.1202E-002  
  584.00  2.1332E-002  
  584.50  2.1424E-002  
  585.00  2.1466E-002  
  585.50  2.1456E-002  
  586.00  2.1482E-002  
  586.50  2.1546E-002  
  587.00  2.1598E-002  
  587.50  2.1637E-002  
  588.00  2.1703E-002  
  588.50  2.1831E-002  
  589.00  2.1974E-002  
  589.50  2.2001E-002  
  590.00  2.2038E-002  
  590.50  2.2122E-002  
  591.00  2.2217E-002  
  591.50  2.2300E-002  
  592.00  2.2294E-002  
  592.50  2.2311E-002  
  593.00  2.2338E-002  
  593.50  2.2325E-002  
  594.00  2.2359E-002  
  594.50  2.2441E-002  
  595.00  2.2568E-002  
  595.50  2.2651E-002  
  596.00  2.2730E-002  
  596.50  2.2735E-002  
  597.00  2.2815E-002  
  597.50  2.2882E-002  
  598.00  2.3020E-002  
  598.50  2.3149E-002  
  599.00  2.3197E-002  
  599.50  2.3200E-002  
  600.00  2.3145E-002  
  600.50  2.3101E-002  
  601.00  2.3080E-002  
  601.50  2.3137E-002  
  602.00  2.3256E-002  
  602.50  2.3423E-002  
  603.00  2.3491E-002  
  603.50  2.3523E-002  
  604.00  2.3538E-002  
  604.50  2.3560E-002  
  605.00  2.3633E-002  
  605.50  2.3628E-002  
  606.00  2.3680E-002  
  606.50  2.3741E-002  
  607.00  2.3808E-002  
  607.50  2.3876E-002  
  608.00  2.3946E-002  
  608.50  2.4013E-002  
  609.00  2.4083E-002  
  609.50  2.4093E-002  
  610.00  2.4100E-002  
  610.50  2.4112E-002  
  611.00  2.4146E-002  
  611.50  2.4218E-002  
  612.00  2.4274E-002  
  612.50  2.4314E-002  
  613.00  2.4337E-002  
  613.50  2.4376E-002  
  614.00  2.4438E-002  
  614.50  2.4493E-002  
  615.00  2.4574E-002  
  615.50  2.4625E-002  
  616.00  2.4673E-002  
  616.50  2.4685E-002  
  617.00  2.4700E-002  
  617.50  2.4739E-002  
  618.00  2.4796E-002  
  618.50  2.4803E-002  
  619.00  2.4789E-002  
  619.50  2.4777E-002  
  620.00  2.4799E-002  
  620.50  2.4859E-002  
  621.00  2.4941E-002  
  621.50  2.5031E-002  
  622.00  2.5160E-002  
  622.50  2.5194E-002  
  623.00  2.5199E-002  
  623.50  2.5153E-002  
  624.00  2.5176E-002  
  624.50  2.5231E-002  
  625.00  2.5347E-002  
  625.50  2.5490E-002  
  626.00  2.5550E-002  
  626.50  2.5522E-002  
  627.00  2.5459E-002  
  627.50  2.5454E-002  
  628.00  2.5548E-002  
  628.50  2.5538E-002  
  629.00  2.5547E-002  
  629.50  2.5519E-002  
  630.00  2.5580E-002  
  630.50  2.5682E-002  
  631.00  2.5739E-002  
  631.50  2.5809E-002  
  632.00  2.5892E-002  
  632.50  2.5960E-002  
  633.00  2.5961E-002  
  633.50  2.5916E-002  
  634.00  2.5916E-002  
  634.50  2.5978E-002  
  635.00  2.6056E-002  
  635.50  2.6126E-002  
  636.00  2.6175E-002  
  636.50  2.6174E-002  
  637.00  2.6218E-002  
  637.50  2.6355E-002  
  638.00  2.6489E-002  
  638.50  2.6552E-002  
  639.00  2.6508E-002  
  639.50  2.6426E-002  
  640.00  2.6432E-002  
  640.50  2.6399E-002  
  641.00  2.6349E-002  
  641.50  2.6391E-002  
  642.00  2.6541E-002  
  642.50  2.6731E-002  
  643.00  2.6725E-002  
  643.50  2.6704E-002  
  644.00  2.6688E-002  
  644.50  2.6773E-002  
  645.00  2.6806E-002  
  645.50  2.6903E-002  
  646.00  2.6879E-002  
  646.50  2.6869E-002  
  647.00  2.6876E-002  
  647.50  2.6905E-002  
  648.00  2.6973E-002  
  648.50  2.7059E-002  
  649.00  2.7187E-002  
  649.50  2.7209E-002  
  650.00  2.7129E-002  
  650.50  2.7020E-002  
  651.00  2.7016E-002  
  651.50  2.7122E-002  
  652.00  2.7274E-002  
  652.50  2.7427E-002  
  653.00  2.7433E-002  
  653.50  2.7334E-002  
  654.00  2.7287E-002  
  654.50  2.7293E-002  
  655.00  2.7405E-002  
  655.50  2.7458E-002  
  656.00  2.7447E-002  
  656.50  2.7366E-002  
  657.00  2.7327E-002  
  657.50  2.7437E-002  
  658.00  2.7567E-002  
  658.50  2.7646E-002  
  659.00  2.7674E-002  
  659.50  2.7689E-002  
  660.00  2.7721E-002  
  660.50  2.7727E-002  
  661.00  2.7797E-002  
  661.50  2.7912E-002  
  662.00  2.7957E-002  
  662.50  2.7982E-002  
  663.00  2.7970E-002  
  663.50  2.7924E-002  
  664.00  2.7911E-002  
  664.50  2.7979E-002  
  665.00  2.8032E-002  
  665.50  2.7994E-002  
  666.00  2.7847E-002  
  666.50  2.7837E-002  
  667.00  2.7901E-002  
  667.50  2.7973E-002  
  668.00  2.7991E-002  
  668.50  2.7939E-002  
  669.00  2.7859E-002  
  669.50  2.7794E-002  
  670.00  2.7718E-002  
  670.50  2.7711E-002  
  671.00  2.7777E-002  
  671.50  2.7977E-002  
  672.00  2.8149E-002  
  672.50  2.8243E-002  
  673.00  2.8273E-002  
  673.50  2.8316E-002  
  674.00  2.8316E-002  
  674.50  2.8399E-002  
  675.00  2.8333E-002  
  675.50  2.8389E-002  
  676.00  2.8338E-002  
  676.50  2.8457E-002  
  677.00  2.8497E-002  
  677.50  2.8463E-002  
  678.00  2.8430E-002  
  678.50  2.8491E-002  
  679.00  2.8547E-002  
  679.50  2.8577E-002  
  680.00  2.8526E-002  
