
# From lspdd.org
# 
# Name: DEL Sylvania G25 Bombilla Domestique
# Indice spectral Valeur 
# MSI 0.32 
# SLI 0.52 
# IPI 0.71 
# Pourcentage de bleu 19.0 
# Caractéristique Valeur 
# CCT calculée (K) 3037 
# CCT du fabricant (K) 3046 
# Tension (V) 120 
# Puissance (W) 8.0 
# Efficacité lumineuse (Lum/W) 56.3 
#
# Image: '/app/system/img_2s/2599/medium_image2.JPG?1413486591'
# Image: '/app/system/img_1s/2599/medium_image1.JPG?1413486592'
# 

  273.00  0.0000E+000  
  273.50  0.0000E+000  
  274.00  0.0000E+000  
  274.50  0.0000E+000  
  275.00  0.0000E+000  
  275.50  0.0000E+000  
  276.00  0.0000E+000  
  276.50  0.0000E+000  
  277.00  0.0000E+000  
  277.50  0.0000E+000  
  278.00  0.0000E+000  
  278.50  0.0000E+000  
  279.00  0.0000E+000  
  279.50  0.0000E+000  
  280.00  0.0000E+000  
  280.50  0.0000E+000  
  281.00  0.0000E+000  
  281.50  0.0000E+000  
  282.00  0.0000E+000  
  282.50  0.0000E+000  
  283.00  0.0000E+000  
  283.50  0.0000E+000  
  284.00  0.0000E+000  
  284.50  0.0000E+000  
  285.00  0.0000E+000  
  285.50  0.0000E+000  
  286.00  0.0000E+000  
  286.50  0.0000E+000  
  287.00  0.0000E+000  
  287.50  0.0000E+000  
  288.00  0.0000E+000  
  288.50  0.0000E+000  
  289.00  0.0000E+000  
  289.50  0.0000E+000  
  290.00  0.0000E+000  
  290.50  0.0000E+000  
  291.00  0.0000E+000  
  291.50  0.0000E+000  
  292.00  0.0000E+000  
  292.50  0.0000E+000  
  293.00  0.0000E+000  
  293.50  0.0000E+000  
  294.00  0.0000E+000  
  294.50  0.0000E+000  
  295.00  0.0000E+000  
  295.50  0.0000E+000  
  296.00  0.0000E+000  
  296.50  0.0000E+000  
  297.00  0.0000E+000  
  297.50  0.0000E+000  
  298.00  0.0000E+000  
  298.50  0.0000E+000  
  299.00  0.0000E+000  
  299.50  0.0000E+000  
  300.00  5.2345E-005  
  300.50  1.5494E-004  
  301.00  1.1009E-004  
  301.50  8.1657E-005  
  302.00  6.9977E-005  
  302.50  5.3011E-005  
  303.00  6.8592E-005  
  303.50  3.1039E-005  
  304.00  1.7016E-005  
  304.50  2.2710E-005  
  305.00  4.7958E-005  
  305.50  7.6920E-005  
  306.00  7.6007E-005  
  306.50  8.0397E-005  
  307.00  7.9893E-005  
  307.50  1.0763E-004  
  308.00  1.1264E-004  
  308.50  1.5324E-004  
  309.00  2.0976E-004  
  309.50  2.2005E-004  
  310.00  2.2559E-004  
  310.50  2.1167E-004  
  311.00  1.6081E-004  
  311.50  1.4027E-004  
  312.00  1.0458E-004  
  312.50  7.2178E-005  
  313.00  1.0281E-004  
  313.50  9.7395E-005  
  314.00  1.1229E-004  
  314.50  1.0189E-004  
  315.00  1.1469E-004  
  315.50  1.2780E-004  
  316.00  7.6539E-005  
  316.50  4.2878E-005  
  317.00  5.5547E-006  
  317.50  6.2908E-005  
  318.00  1.4810E-004  
  318.50  1.5677E-004  
  319.00  1.0803E-004  
  319.50  4.1543E-005  
  320.00  7.8352E-006  
  320.50  1.4047E-005  
  321.00  7.2986E-005  
  321.50  1.0523E-004  
  322.00  1.0646E-004  
  322.50  1.7056E-004  
  323.00  1.9599E-004  
  323.50  1.8486E-004  
  324.00  1.9075E-004  
  324.50  1.8221E-004  
  325.00  2.0837E-004  
  325.50  2.3236E-004  
  326.00  2.2410E-004  
  326.50  1.9573E-004  
  327.00  1.7262E-004  
  327.50  1.7324E-004  
  328.00  2.0627E-004  
  328.50  2.0648E-004  
  329.00  1.8141E-004  
  329.50  1.3387E-004  
  330.00  5.0261E-005  
  330.50  7.9643E-006  
  331.00  0.0000E+000  
  331.50  9.9756E-006  
  332.00  5.6253E-005  
  332.50  1.0935E-004  
  333.00  1.2329E-004  
  333.50  1.0590E-004  
  334.00  1.0943E-004  
  334.50  8.8951E-005  
  335.00  7.8505E-005  
  335.50  9.4922E-005  
  336.00  6.2819E-005  
  336.50  6.6086E-005  
  337.00  6.2541E-005  
  337.50  3.5252E-005  
  338.00  8.5080E-005  
  338.50  8.8661E-005  
  339.00  9.7664E-005  
  339.50  7.0082E-005  
  340.00  1.8630E-005  
  340.50  3.2745E-005  
  341.00  5.1025E-005  
  341.50  9.9509E-005  
  342.00  1.1609E-004  
  342.50  7.4067E-005  
  343.00  5.7288E-005  
  343.50  5.8222E-005  
  344.00  8.4307E-005  
  344.50  1.4952E-004  
  345.00  1.6825E-004  
  345.50  1.3224E-004  
  346.00  9.1402E-005  
  346.50  3.0971E-005  
  347.00  8.3601E-007  
  347.50  3.5131E-005  
  348.00  1.0168E-004  
  348.50  1.5093E-004  
  349.00  1.8221E-004  
  349.50  1.9517E-004  
  350.00  1.5495E-004  
  350.50  1.5251E-004  
  351.00  1.6997E-004  
  351.50  1.6128E-004  
  352.00  1.8687E-004  
  352.50  1.9967E-004  
  353.00  2.0626E-004  
  353.50  1.6536E-004  
  354.00  1.3875E-004  
  354.50  5.7934E-005  
  355.00  4.2185E-006  
  355.50  0.0000E+000  
  356.00  6.8645E-006  
  356.50  5.2465E-005  
  357.00  1.1205E-004  
  357.50  1.5239E-004  
  358.00  2.0044E-004  
  358.50  2.1681E-004  
  359.00  2.2328E-004  
  359.50  1.8171E-004  
  360.00  1.2026E-004  
  360.50  1.2191E-004  
  361.00  1.0217E-004  
  361.50  1.1920E-004  
  362.00  1.4674E-004  
  362.50  1.3597E-004  
  363.00  1.6509E-004  
  363.50  1.8059E-004  
  364.00  1.8645E-004  
  364.50  2.2527E-004  
  365.00  2.5487E-004  
  365.50  2.8926E-004  
  366.00  2.7155E-004  
  366.50  2.1103E-004  
  367.00  1.4152E-004  
  367.50  4.1580E-005  
  368.00  1.0287E-005  
  368.50  1.1390E-005  
  369.00  1.7555E-005  
  369.50  9.8350E-005  
  370.00  1.5123E-004  
  370.50  2.1640E-004  
  371.00  2.6377E-004  
  371.50  2.6657E-004  
  372.00  2.7644E-004  
  372.50  2.7863E-004  
  373.00  2.4662E-004  
  373.50  2.0244E-004  
  374.00  1.5193E-004  
  374.50  1.8305E-004  
  375.00  1.8560E-004  
  375.50  1.8529E-004  
  376.00  1.5225E-004  
  376.50  1.3784E-004  
  377.00  1.6704E-004  
  377.50  2.3319E-004  
  378.00  2.7803E-004  
  378.50  2.5562E-004  
  379.00  2.2375E-004  
  379.50  1.9239E-004  
  380.00  2.1349E-004  
  380.50  2.5594E-004  
  381.00  3.0006E-004  
  381.50  3.5073E-004  
  382.00  3.5747E-004  
  382.50  2.9887E-004  
  383.00  2.3551E-004  
  383.50  1.7801E-004  
  384.00  1.4422E-004  
  384.50  1.7413E-004  
  385.00  2.1608E-004  
  385.50  2.4179E-004  
  386.00  2.6060E-004  
  386.50  2.5894E-004  
  387.00  2.1482E-004  
  387.50  2.0237E-004  
  388.00  2.1597E-004  
  388.50  2.3368E-004  
  389.00  2.3805E-004  
  389.50  2.4209E-004  
  390.00  2.8620E-004  
  390.50  3.1102E-004  
  391.00  2.7777E-004  
  391.50  2.7043E-004  
  392.00  2.4068E-004  
  392.50  2.4606E-004  
  393.00  2.7564E-004  
  393.50  2.3808E-004  
  394.00  2.1257E-004  
  394.50  1.8717E-004  
  395.00  1.6329E-004  
  395.50  1.5707E-004  
  396.00  1.9871E-004  
  396.50  2.5439E-004  
  397.00  2.7487E-004  
  397.50  2.4445E-004  
  398.00  2.5103E-004  
  398.50  2.5962E-004  
  399.00  3.4137E-004  
  399.50  3.6332E-004  
  400.00  3.5063E-004  
  400.50  3.4175E-004  
  401.00  3.0556E-004  
  401.50  3.3476E-004  
  402.00  3.7631E-004  
  402.50  4.2540E-004  
  403.00  4.4318E-004  
  403.50  4.0979E-004  
  404.00  3.5804E-004  
  404.50  3.8467E-004  
  405.00  4.2091E-004  
  405.50  5.0372E-004  
  406.00  5.5696E-004  
  406.50  5.8811E-004  
  407.00  6.0510E-004  
  407.50  5.9892E-004  
  408.00  5.6378E-004  
  408.50  5.4255E-004  
  409.00  5.3807E-004  
  409.50  5.7622E-004  
  410.00  6.3730E-004  
  410.50  6.6643E-004  
  411.00  6.8877E-004  
  411.50  7.1541E-004  
  412.00  7.3720E-004  
  412.50  8.2792E-004  
  413.00  8.7138E-004  
  413.50  9.7051E-004  
  414.00  1.0637E-003  
  414.50  1.1404E-003  
  415.00  1.2600E-003  
  415.50  1.3676E-003  
  416.00  1.5124E-003  
  416.50  1.6642E-003  
  417.00  1.7809E-003  
  417.50  1.8254E-003  
  418.00  1.8534E-003  
  418.50  1.9130E-003  
  419.00  2.0417E-003  
  419.50  2.2261E-003  
  420.00  2.3820E-003  
  420.50  2.5428E-003  
  421.00  2.6707E-003  
  421.50  2.8600E-003  
  422.00  3.1237E-003  
  422.50  3.4155E-003  
  423.00  3.7387E-003  
  423.50  4.0150E-003  
  424.00  4.2523E-003  
  424.50  4.4571E-003  
  425.00  4.7359E-003  
  425.50  5.0458E-003  
  426.00  5.4083E-003  
  426.50  5.7695E-003  
  427.00  6.0908E-003  
  427.50  6.4916E-003  
  428.00  6.9481E-003  
  428.50  7.4648E-003  
  429.00  7.9910E-003  
  429.50  8.4266E-003  
  430.00  8.8311E-003  
  430.50  9.3314E-003  
  431.00  9.9369E-003  
  431.50  1.0590E-002  
  432.00  1.1253E-002  
  432.50  1.1907E-002  
  433.00  1.2517E-002  
  433.50  1.3150E-002  
  434.00  1.3806E-002  
  434.50  1.4522E-002  
  435.00  1.5369E-002  
  435.50  1.6253E-002  
  436.00  1.7110E-002  
  436.50  1.8028E-002  
  437.00  1.9098E-002  
  437.50  2.0232E-002  
  438.00  2.1447E-002  
  438.50  2.2535E-002  
  439.00  2.3692E-002  
  439.50  2.5017E-002  
  440.00  2.6432E-002  
  440.50  2.7919E-002  
  441.00  2.9379E-002  
  441.50  3.0819E-002  
  442.00  3.2213E-002  
  442.50  3.3597E-002  
  443.00  3.5026E-002  
  443.50  3.6434E-002  
  444.00  3.7884E-002  
  444.50  3.9285E-002  
  445.00  4.0592E-002  
  445.50  4.1676E-002  
  446.00  4.2588E-002  
  446.50  4.3235E-002  
  447.00  4.3739E-002  
  447.50  4.4066E-002  
  448.00  4.4060E-002  
  448.50  4.3792E-002  
  449.00  4.3359E-002  
  449.50  4.2824E-002  
  450.00  4.2190E-002  
  450.50  4.1366E-002  
  451.00  4.0284E-002  
  451.50  3.8989E-002  
  452.00  3.7568E-002  
  452.50  3.6198E-002  
  453.00  3.4701E-002  
  453.50  3.3119E-002  
  454.00  3.1513E-002  
  454.50  2.9962E-002  
  455.00  2.8712E-002  
  455.50  2.7505E-002  
  456.00  2.6308E-002  
  456.50  2.5208E-002  
  457.00  2.4197E-002  
  457.50  2.3350E-002  
  458.00  2.2555E-002  
  458.50  2.1738E-002  
  459.00  2.0977E-002  
  459.50  2.0279E-002  
  460.00  1.9680E-002  
  460.50  1.9150E-002  
  461.00  1.8615E-002  
  461.50  1.8073E-002  
  462.00  1.7532E-002  
  462.50  1.7061E-002  
  463.00  1.6672E-002  
  463.50  1.6263E-002  
  464.00  1.5891E-002  
  464.50  1.5443E-002  
  465.00  1.5002E-002  
  465.50  1.4577E-002  
  466.00  1.4150E-002  
  466.50  1.3744E-002  
  467.00  1.3303E-002  
  467.50  1.2858E-002  
  468.00  1.2442E-002  
  468.50  1.2070E-002  
  469.00  1.1710E-002  
  469.50  1.1316E-002  
  470.00  1.0961E-002  
  470.50  1.0657E-002  
  471.00  1.0378E-002  
  471.50  1.0104E-002  
  472.00  9.8188E-003  
  472.50  9.5842E-003  
  473.00  9.3834E-003  
  473.50  9.1935E-003  
  474.00  9.0202E-003  
  474.50  8.8870E-003  
  475.00  8.7899E-003  
  475.50  8.7179E-003  
  476.00  8.6331E-003  
  476.50  8.5427E-003  
  477.00  8.4544E-003  
  477.50  8.3544E-003  
  478.00  8.3055E-003  
  478.50  8.3006E-003  
  479.00  8.2882E-003  
  479.50  8.2547E-003  
  480.00  8.2662E-003  
  480.50  8.2863E-003  
  481.00  8.3376E-003  
  481.50  8.3389E-003  
  482.00  8.3146E-003  
  482.50  8.3729E-003  
  483.00  8.4318E-003  
  483.50  8.5012E-003  
  484.00  8.5875E-003  
  484.50  8.6779E-003  
  485.00  8.7828E-003  
  485.50  8.8797E-003  
  486.00  8.9439E-003  
  486.50  9.0578E-003  
  487.00  9.1674E-003  
  487.50  9.3492E-003  
  488.00  9.5629E-003  
  488.50  9.8001E-003  
  489.00  1.0058E-002  
  489.50  1.0280E-002  
  490.00  1.0517E-002  
  490.50  1.0752E-002  
  491.00  1.0986E-002  
  491.50  1.1235E-002  
  492.00  1.1490E-002  
  492.50  1.1754E-002  
  493.00  1.2083E-002  
  493.50  1.2407E-002  
  494.00  1.2749E-002  
  494.50  1.3104E-002  
  495.00  1.3422E-002  
  495.50  1.3728E-002  
  496.00  1.4021E-002  
  496.50  1.4370E-002  
  497.00  1.4764E-002  
  497.50  1.5215E-002  
  498.00  1.5648E-002  
  498.50  1.6089E-002  
  499.00  1.6551E-002  
  499.50  1.6973E-002  
  500.00  1.7351E-002  
  500.50  1.7723E-002  
  501.00  1.8131E-002  
  501.50  1.8576E-002  
  502.00  1.9042E-002  
  502.50  1.9422E-002  
  503.00  1.9830E-002  
  503.50  2.0316E-002  
  504.00  2.0850E-002  
  504.50  2.1405E-002  
  505.00  2.1865E-002  
  505.50  2.2308E-002  
  506.00  2.2758E-002  
  506.50  2.3188E-002  
  507.00  2.3604E-002  
  507.50  2.4036E-002  
  508.00  2.4510E-002  
  508.50  2.5035E-002  
  509.00  2.5563E-002  
  509.50  2.6022E-002  
  510.00  2.6454E-002  
  510.50  2.6841E-002  
  511.00  2.7273E-002  
  511.50  2.7693E-002  
  512.00  2.8176E-002  
  512.50  2.8658E-002  
  513.00  2.9183E-002  
  513.50  2.9701E-002  
  514.00  3.0189E-002  
  514.50  3.0655E-002  
  515.00  3.1093E-002  
  515.50  3.1535E-002  
  516.00  3.1930E-002  
  516.50  3.2369E-002  
  517.00  3.2751E-002  
  517.50  3.3184E-002  
  518.00  3.3592E-002  
  518.50  3.4025E-002  
  519.00  3.4439E-002  
  519.50  3.4771E-002  
  520.00  3.5130E-002  
  520.50  3.5549E-002  
  521.00  3.6057E-002  
  521.50  3.6579E-002  
  522.00  3.7014E-002  
  522.50  3.7377E-002  
  523.00  3.7710E-002  
  523.50  3.8093E-002  
  524.00  3.8479E-002  
  524.50  3.8881E-002  
  525.00  3.9224E-002  
  525.50  3.9570E-002  
  526.00  3.9936E-002  
  526.50  4.0278E-002  
  527.00  4.0568E-002  
  527.50  4.0881E-002  
  528.00  4.1249E-002  
  528.50  4.1617E-002  
  529.00  4.1982E-002  
  529.50  4.2290E-002  
  530.00  4.2627E-002  
  530.50  4.2948E-002  
  531.00  4.3246E-002  
  531.50  4.3481E-002  
  532.00  4.3756E-002  
  532.50  4.4039E-002  
  533.00  4.4405E-002  
  533.50  4.4751E-002  
  534.00  4.5065E-002  
  534.50  4.5354E-002  
  535.00  4.5577E-002  
  535.50  4.5859E-002  
  536.00  4.6155E-002  
  536.50  4.6503E-002  
  537.00  4.6871E-002  
  537.50  4.7073E-002  
  538.00  4.7273E-002  
  538.50  4.7387E-002  
  539.00  4.7598E-002  
  539.50  4.7806E-002  
  540.00  4.8083E-002  
  540.50  4.8396E-002  
  541.00  4.8715E-002  
  541.50  4.9062E-002  
  542.00  4.9376E-002  
  542.50  4.9689E-002  
  543.00  4.9978E-002  
  543.50  5.0193E-002  
  544.00  5.0351E-002  
  544.50  5.0510E-002  
  545.00  5.0688E-002  
  545.50  5.0962E-002  
  546.00  5.1247E-002  
  546.50  5.1604E-002  
  547.00  5.1882E-002  
  547.50  5.2101E-002  
  548.00  5.2229E-002  
  548.50  5.2359E-002  
  549.00  5.2537E-002  
  549.50  5.2782E-002  
  550.00  5.3015E-002  
  550.50  5.3273E-002  
  551.00  5.3551E-002  
  551.50  5.3796E-002  
  552.00  5.4026E-002  
  552.50  5.4200E-002  
  553.00  5.4351E-002  
  553.50  5.4587E-002  
  554.00  5.4821E-002  
  554.50  5.5140E-002  
  555.00  5.5339E-002  
  555.50  5.5510E-002  
  556.00  5.5670E-002  
  556.50  5.5863E-002  
  557.00  5.6101E-002  
  557.50  5.6318E-002  
  558.00  5.6545E-002  
  558.50  5.6778E-002  
  559.00  5.6991E-002  
  559.50  5.7224E-002  
  560.00  5.7433E-002  
  560.50  5.7579E-002  
  561.00  5.7646E-002  
  561.50  5.7608E-002  
  562.00  5.7682E-002  
  562.50  5.7750E-002  
  563.00  5.8005E-002  
  563.50  5.8315E-002  
  564.00  5.8510E-002  
  564.50  5.8694E-002  
  565.00  5.8781E-002  
  565.50  5.8913E-002  
  566.00  5.9080E-002  
  566.50  5.9267E-002  
  567.00  5.9388E-002  
  567.50  5.9473E-002  
  568.00  5.9566E-002  
  568.50  5.9717E-002  
  569.00  5.9899E-002  
  569.50  5.9973E-002  
  570.00  6.0045E-002  
  570.50  6.0099E-002  
  571.00  6.0284E-002  
  571.50  6.0530E-002  
  572.00  6.0855E-002  
  572.50  6.1053E-002  
  573.00  6.1123E-002  
  573.50  6.1077E-002  
  574.00  6.1070E-002  
  574.50  6.1183E-002  
  575.00  6.1333E-002  
  575.50  6.1572E-002  
  576.00  6.1678E-002  
  576.50  6.1691E-002  
  577.00  6.1701E-002  
  577.50  6.1853E-002  
  578.00  6.2111E-002  
  578.50  6.2328E-002  
  579.00  6.2361E-002  
  579.50  6.2506E-002  
  580.00  6.2680E-002  
  580.50  6.2964E-002  
  581.00  6.3043E-002  
  581.50  6.3156E-002  
  582.00  6.3165E-002  
  582.50  6.3243E-002  
  583.00  6.3281E-002  
  583.50  6.3330E-002  
  584.00  6.3422E-002  
  584.50  6.3533E-002  
  585.00  6.3743E-002  
  585.50  6.3924E-002  
  586.00  6.4023E-002  
  586.50  6.3983E-002  
  587.00  6.3900E-002  
  587.50  6.3978E-002  
  588.00  6.4096E-002  
  588.50  6.4330E-002  
  589.00  6.4559E-002  
  589.50  6.4743E-002  
  590.00  6.4884E-002  
  590.50  6.4989E-002  
  591.00  6.5145E-002  
  591.50  6.5302E-002  
  592.00  6.5340E-002  
  592.50  6.5381E-002  
  593.00  6.5433E-002  
  593.50  6.5527E-002  
  594.00  6.5714E-002  
  594.50  6.5870E-002  
  595.00  6.6131E-002  
  595.50  6.6144E-002  
  596.00  6.6228E-002  
  596.50  6.6289E-002  
  597.00  6.6471E-002  
  597.50  6.6569E-002  
  598.00  6.6582E-002  
  598.50  6.6553E-002  
  599.00  6.6670E-002  
  599.50  6.6813E-002  
  600.00  6.7041E-002  
  600.50  6.7144E-002  
  601.00  6.7160E-002  
  601.50  6.7158E-002  
  602.00  6.7156E-002  
  602.50  6.7271E-002  
  603.00  6.7467E-002  
  603.50  6.7688E-002  
  604.00  6.7843E-002  
  604.50  6.7885E-002  
  605.00  6.7845E-002  
  605.50  6.7750E-002  
  606.00  6.7634E-002  
  606.50  6.7690E-002  
  607.00  6.7881E-002  
  607.50  6.8062E-002  
  608.00  6.8128E-002  
  608.50  6.8185E-002  
  609.00  6.8315E-002  
  609.50  6.8402E-002  
  610.00  6.8447E-002  
  610.50  6.8401E-002  
  611.00  6.8399E-002  
  611.50  6.8491E-002  
  612.00  6.8571E-002  
  612.50  6.8681E-002  
  613.00  6.8702E-002  
  613.50  6.8736E-002  
  614.00  6.8761E-002  
  614.50  6.8766E-002  
  615.00  6.8670E-002  
  615.50  6.8574E-002  
  616.00  6.8508E-002  
  616.50  6.8600E-002  
  617.00  6.8583E-002  
  617.50  6.8470E-002  
  618.00  6.8306E-002  
  618.50  6.8247E-002  
  619.00  6.8427E-002  
  619.50  6.8604E-002  
  620.00  6.8807E-002  
  620.50  6.8682E-002  
  621.00  6.8518E-002  
  621.50  6.8338E-002  
  622.00  6.8395E-002  
  622.50  6.8463E-002  
  623.00  6.8504E-002  
  623.50  6.8437E-002  
  624.00  6.8371E-002  
  624.50  6.8224E-002  
  625.00  6.8039E-002  
  625.50  6.7910E-002  
  626.00  6.7807E-002  
  626.50  6.7731E-002  
  627.00  6.7584E-002  
  627.50  6.7443E-002  
  628.00  6.7486E-002  
  628.50  6.7539E-002  
  629.00  6.7533E-002  
  629.50  6.7299E-002  
  630.00  6.7046E-002  
  630.50  6.6856E-002  
  631.00  6.6668E-002  
  631.50  6.6520E-002  
  632.00  6.6456E-002  
  632.50  6.6431E-002  
  633.00  6.6242E-002  
  633.50  6.5902E-002  
  634.00  6.5617E-002  
  634.50  6.5494E-002  
  635.00  6.5424E-002  
  635.50  6.5263E-002  
  636.00  6.5064E-002  
  636.50  6.4883E-002  
  637.00  6.4748E-002  
  637.50  6.4611E-002  
  638.00  6.4506E-002  
  638.50  6.4420E-002  
  639.00  6.4201E-002  
  639.50  6.3869E-002  
  640.00  6.3565E-002  
  640.50  6.3360E-002  
  641.00  6.3091E-002  
  641.50  6.2743E-002  
  642.00  6.2431E-002  
  642.50  6.2241E-002  
  643.00  6.2116E-002  
  643.50  6.1923E-002  
  644.00  6.1742E-002  
  644.50  6.1442E-002  
  645.00  6.1153E-002  
  645.50  6.0886E-002  
  646.00  6.0641E-002  
  646.50  6.0426E-002  
  647.00  6.0146E-002  
  647.50  5.9723E-002  
  648.00  5.9258E-002  
  648.50  5.8810E-002  
  649.00  5.8505E-002  
  649.50  5.8252E-002  
  650.00  5.8027E-002  
  650.50  5.7735E-002  
  651.00  5.7413E-002  
  651.50  5.7062E-002  
  652.00  5.6758E-002  
  652.50  5.6442E-002  
  653.00  5.6010E-002  
  653.50  5.5712E-002  
  654.00  5.5457E-002  
  654.50  5.5198E-002  
  655.00  5.4857E-002  
  655.50  5.4414E-002  
  656.00  5.4067E-002  
  656.50  5.3735E-002  
  657.00  5.3344E-002  
  657.50  5.2940E-002  
  658.00  5.2443E-002  
  658.50  5.2087E-002  
  659.00  5.1751E-002  
  659.50  5.1443E-002  
  660.00  5.1077E-002  
  660.50  5.0655E-002  
  661.00  5.0197E-002  
  661.50  4.9800E-002  
  662.00  4.9416E-002  
  662.50  4.9048E-002  
  663.00  4.8625E-002  
  663.50  4.8283E-002  
  664.00  4.7947E-002  
  664.50  4.7663E-002  
  665.00  4.7360E-002  
  665.50  4.6957E-002  
  666.00  4.6505E-002  
  666.50  4.6019E-002  
  667.00  4.5569E-002  
  667.50  4.5110E-002  
  668.00  4.4603E-002  
  668.50  4.4201E-002  
  669.00  4.3757E-002  
  669.50  4.3337E-002  
  670.00  4.2935E-002  
  670.50  4.2661E-002  
  671.00  4.2368E-002  
  671.50  4.1951E-002  
  672.00  4.1550E-002  
  672.50  4.1142E-002  
  673.00  4.0737E-002  
  673.50  4.0321E-002  
  674.00  3.9906E-002  
  674.50  3.9594E-002  
  675.00  3.9188E-002  
  675.50  3.8823E-002  
  676.00  3.8470E-002  
  676.50  3.8184E-002  
  677.00  3.7819E-002  
  677.50  3.7386E-002  
  678.00  3.6830E-002  
  678.50  3.6408E-002  
  679.00  3.5966E-002  
  679.50  3.5572E-002  
