
# From lspdd.org
# 
# Name: DEL Philips PAR38 Enduraled Domestique
# Indice spectral Valeur 
# MSI 0.28 
# SLI 0.50 
# IPI 0.63 
# Pourcentage de bleu 18.6 
# Caractéristique Valeur 
# CCT calculée (K) 2928 
# CCT du fabricant (K) 3000 
# Tension (V) 120 
# Puissance (W) 18.0 
# Efficacité lumineuse (Lum/W) 58.3 
#
# Image: '/app/system/img_2s/2606/medium_image2.JPG?1413486630'
# Image: '/app/system/img_1s/2606/medium_image1.jpg?1413486639'
# 

  273.00  0.0000E+000  
  273.50  0.0000E+000  
  274.00  0.0000E+000  
  274.50  0.0000E+000  
  275.00  0.0000E+000  
  275.50  0.0000E+000  
  276.00  0.0000E+000  
  276.50  0.0000E+000  
  277.00  0.0000E+000  
  277.50  0.0000E+000  
  278.00  0.0000E+000  
  278.50  0.0000E+000  
  279.00  0.0000E+000  
  279.50  0.0000E+000  
  280.00  0.0000E+000  
  280.50  0.0000E+000  
  281.00  0.0000E+000  
  281.50  0.0000E+000  
  282.00  0.0000E+000  
  282.50  0.0000E+000  
  283.00  0.0000E+000  
  283.50  0.0000E+000  
  284.00  0.0000E+000  
  284.50  0.0000E+000  
  285.00  0.0000E+000  
  285.50  0.0000E+000  
  286.00  0.0000E+000  
  286.50  0.0000E+000  
  287.00  0.0000E+000  
  287.50  0.0000E+000  
  288.00  0.0000E+000  
  288.50  0.0000E+000  
  289.00  0.0000E+000  
  289.50  0.0000E+000  
  290.00  0.0000E+000  
  290.50  0.0000E+000  
  291.00  0.0000E+000  
  291.50  0.0000E+000  
  292.00  0.0000E+000  
  292.50  0.0000E+000  
  293.00  0.0000E+000  
  293.50  0.0000E+000  
  294.00  0.0000E+000  
  294.50  0.0000E+000  
  295.00  0.0000E+000  
  295.50  0.0000E+000  
  296.00  0.0000E+000  
  296.50  0.0000E+000  
  297.00  0.0000E+000  
  297.50  0.0000E+000  
  298.00  0.0000E+000  
  298.50  0.0000E+000  
  299.00  0.0000E+000  
  299.50  0.0000E+000  
  300.00  0.0000E+000  
  300.50  0.0000E+000  
  301.00  0.0000E+000  
  301.50  0.0000E+000  
  302.00  0.0000E+000  
  302.50  0.0000E+000  
  303.00  0.0000E+000  
  303.50  0.0000E+000  
  304.00  0.0000E+000  
  304.50  0.0000E+000  
  305.00  0.0000E+000  
  305.50  0.0000E+000  
  306.00  0.0000E+000  
  306.50  0.0000E+000  
  307.00  0.0000E+000  
  307.50  0.0000E+000  
  308.00  0.0000E+000  
  308.50  0.0000E+000  
  309.00  0.0000E+000  
  309.50  0.0000E+000  
  310.00  0.0000E+000  
  310.50  0.0000E+000  
  311.00  0.0000E+000  
  311.50  0.0000E+000  
  312.00  0.0000E+000  
  312.50  0.0000E+000  
  313.00  0.0000E+000  
  313.50  0.0000E+000  
  314.00  0.0000E+000  
  314.50  0.0000E+000  
  315.00  0.0000E+000  
  315.50  0.0000E+000  
  316.00  0.0000E+000  
  316.50  0.0000E+000  
  317.00  0.0000E+000  
  317.50  0.0000E+000  
  318.00  0.0000E+000  
  318.50  0.0000E+000  
  319.00  0.0000E+000  
  319.50  0.0000E+000  
  320.00  0.0000E+000  
  320.50  0.0000E+000  
  321.00  0.0000E+000  
  321.50  0.0000E+000  
  322.00  0.0000E+000  
  322.50  0.0000E+000  
  323.00  0.0000E+000  
  323.50  0.0000E+000  
  324.00  0.0000E+000  
  324.50  0.0000E+000  
  325.00  0.0000E+000  
  325.50  0.0000E+000  
  326.00  0.0000E+000  
  326.50  0.0000E+000  
  327.00  0.0000E+000  
  327.50  0.0000E+000  
  328.00  0.0000E+000  
  328.50  0.0000E+000  
  329.00  0.0000E+000  
  329.50  0.0000E+000  
  330.00  0.0000E+000  
  330.50  0.0000E+000  
  331.00  0.0000E+000  
  331.50  0.0000E+000  
  332.00  0.0000E+000  
  332.50  0.0000E+000  
  333.00  0.0000E+000  
  333.50  0.0000E+000  
  334.00  0.0000E+000  
  334.50  0.0000E+000  
  335.00  0.0000E+000  
  335.50  0.0000E+000  
  336.00  0.0000E+000  
  336.50  0.0000E+000  
  337.00  0.0000E+000  
  337.50  0.0000E+000  
  338.00  0.0000E+000  
  338.50  0.0000E+000  
  339.00  0.0000E+000  
  339.50  0.0000E+000  
  340.00  0.0000E+000  
  340.50  0.0000E+000  
  341.00  0.0000E+000  
  341.50  0.0000E+000  
  342.00  0.0000E+000  
  342.50  0.0000E+000  
  343.00  0.0000E+000  
  343.50  0.0000E+000  
  344.00  0.0000E+000  
  344.50  0.0000E+000  
  345.00  0.0000E+000  
  345.50  0.0000E+000  
  346.00  0.0000E+000  
  346.50  0.0000E+000  
  347.00  0.0000E+000  
  347.50  0.0000E+000  
  348.00  0.0000E+000  
  348.50  0.0000E+000  
  349.00  0.0000E+000  
  349.50  0.0000E+000  
  350.00  0.0000E+000  
  350.50  0.0000E+000  
  351.00  0.0000E+000  
  351.50  0.0000E+000  
  352.00  0.0000E+000  
  352.50  0.0000E+000  
  353.00  0.0000E+000  
  353.50  0.0000E+000  
  354.00  0.0000E+000  
  354.50  0.0000E+000  
  355.00  0.0000E+000  
  355.50  0.0000E+000  
  356.00  0.0000E+000  
  356.50  0.0000E+000  
  357.00  0.0000E+000  
  357.50  0.0000E+000  
  358.00  0.0000E+000  
  358.50  0.0000E+000  
  359.00  0.0000E+000  
  359.50  0.0000E+000  
  360.00  0.0000E+000  
  360.50  0.0000E+000  
  361.00  0.0000E+000  
  361.50  0.0000E+000  
  362.00  0.0000E+000  
  362.50  0.0000E+000  
  363.00  0.0000E+000  
  363.50  0.0000E+000  
  364.00  0.0000E+000  
  364.50  0.0000E+000  
  365.00  0.0000E+000  
  365.50  0.0000E+000  
  366.00  0.0000E+000  
  366.50  0.0000E+000  
  367.00  0.0000E+000  
  367.50  0.0000E+000  
  368.00  0.0000E+000  
  368.50  0.0000E+000  
  369.00  0.0000E+000  
  369.50  0.0000E+000  
  370.00  0.0000E+000  
  370.50  0.0000E+000  
  371.00  0.0000E+000  
  371.50  0.0000E+000  
  372.00  0.0000E+000  
  372.50  0.0000E+000  
  373.00  0.0000E+000  
  373.50  0.0000E+000  
  374.00  0.0000E+000  
  374.50  0.0000E+000  
  375.00  0.0000E+000  
  375.50  0.0000E+000  
  376.00  0.0000E+000  
  376.50  0.0000E+000  
  377.00  0.0000E+000  
  377.50  0.0000E+000  
  378.00  0.0000E+000  
  378.50  0.0000E+000  
  379.00  0.0000E+000  
  379.50  0.0000E+000  
  380.00  0.0000E+000  
  380.50  0.0000E+000  
  381.00  0.0000E+000  
  381.50  0.0000E+000  
  382.00  0.0000E+000  
  382.50  0.0000E+000  
  383.00  0.0000E+000  
  383.50  0.0000E+000  
  384.00  0.0000E+000  
  384.50  0.0000E+000  
  385.00  0.0000E+000  
  385.50  0.0000E+000  
  386.00  0.0000E+000  
  386.50  0.0000E+000  
  387.00  0.0000E+000  
  387.50  0.0000E+000  
  388.00  0.0000E+000  
  388.50  0.0000E+000  
  389.00  0.0000E+000  
  389.50  0.0000E+000  
  390.00  0.0000E+000  
  390.50  0.0000E+000  
  391.00  0.0000E+000  
  391.50  0.0000E+000  
  392.00  0.0000E+000  
  392.50  0.0000E+000  
  393.00  0.0000E+000  
  393.50  0.0000E+000  
  394.00  0.0000E+000  
  394.50  0.0000E+000  
  395.00  0.0000E+000  
  395.50  0.0000E+000  
  396.00  0.0000E+000  
  396.50  0.0000E+000  
  397.00  0.0000E+000  
  397.50  0.0000E+000  
  398.00  0.0000E+000  
  398.50  0.0000E+000  
  399.00  0.0000E+000  
  399.50  0.0000E+000  
  400.00  0.0000E+000  
  400.50  0.0000E+000  
  401.00  0.0000E+000  
  401.50  0.0000E+000  
  402.00  0.0000E+000  
  402.50  0.0000E+000  
  403.00  0.0000E+000  
  403.50  0.0000E+000  
  404.00  0.0000E+000  
  404.50  0.0000E+000  
  405.00  0.0000E+000  
  405.50  0.0000E+000  
  406.00  0.0000E+000  
  406.50  0.0000E+000  
  407.00  0.0000E+000  
  407.50  7.3579E-006  
  408.00  2.7108E-005  
  408.50  7.1376E-006  
  409.00  0.0000E+000  
  409.50  3.5066E-006  
  410.00  4.4927E-005  
  410.50  1.0545E-004  
  411.00  1.4130E-004  
  411.50  1.8014E-004  
  412.00  1.9507E-004  
  412.50  1.7944E-004  
  413.00  1.5485E-004  
  413.50  1.3285E-004  
  414.00  1.1464E-004  
  414.50  1.0104E-004  
  415.00  1.1177E-004  
  415.50  1.7226E-004  
  416.00  2.6601E-004  
  416.50  3.8011E-004  
  417.00  4.1534E-004  
  417.50  4.1675E-004  
  418.00  4.2167E-004  
  418.50  4.3133E-004  
  419.00  4.9112E-004  
  419.50  5.6525E-004  
  420.00  6.5755E-004  
  420.50  7.7611E-004  
  421.00  8.6767E-004  
  421.50  9.6396E-004  
  422.00  1.0828E-003  
  422.50  1.1653E-003  
  423.00  1.2810E-003  
  423.50  1.3412E-003  
  424.00  1.4073E-003  
  424.50  1.5221E-003  
  425.00  1.6274E-003  
  425.50  1.7529E-003  
  426.00  1.8909E-003  
  426.50  2.0286E-003  
  427.00  2.2003E-003  
  427.50  2.3800E-003  
  428.00  2.5761E-003  
  428.50  2.8159E-003  
  429.00  3.0380E-003  
  429.50  3.2696E-003  
  430.00  3.4403E-003  
  430.50  3.6110E-003  
  431.00  3.8246E-003  
  431.50  4.0529E-003  
  432.00  4.2854E-003  
  432.50  4.5496E-003  
  433.00  4.8364E-003  
  433.50  5.1511E-003  
  434.00  5.4804E-003  
  434.50  5.7066E-003  
  435.00  5.9816E-003  
  435.50  6.2757E-003  
  436.00  6.6931E-003  
  436.50  7.1157E-003  
  437.00  7.5784E-003  
  437.50  8.0109E-003  
  438.00  8.3796E-003  
  438.50  8.7196E-003  
  439.00  9.0991E-003  
  439.50  9.5395E-003  
  440.00  1.0034E-002  
  440.50  1.0564E-002  
  441.00  1.1092E-002  
  441.50  1.1682E-002  
  442.00  1.2291E-002  
  442.50  1.2842E-002  
  443.00  1.3427E-002  
  443.50  1.3965E-002  
  444.00  1.4576E-002  
  444.50  1.5292E-002  
  445.00  1.6072E-002  
  445.50  1.6874E-002  
  446.00  1.7633E-002  
  446.50  1.8357E-002  
  447.00  1.9058E-002  
  447.50  1.9804E-002  
  448.00  2.0585E-002  
  448.50  2.1311E-002  
  449.00  2.1969E-002  
  449.50  2.2596E-002  
  450.00  2.3195E-002  
  450.50  2.3895E-002  
  451.00  2.4583E-002  
  451.50  2.5147E-002  
  452.00  2.5589E-002  
  452.50  2.5930E-002  
  453.00  2.6299E-002  
  453.50  2.6609E-002  
  454.00  2.6851E-002  
  454.50  2.7003E-002  
  455.00  2.7042E-002  
  455.50  2.7081E-002  
  456.00  2.7077E-002  
  456.50  2.7118E-002  
  457.00  2.7066E-002  
  457.50  2.6920E-002  
  458.00  2.6680E-002  
  458.50  2.6255E-002  
  459.00  2.5909E-002  
  459.50  2.5583E-002  
  460.00  2.5242E-002  
  460.50  2.4906E-002  
  461.00  2.4432E-002  
  461.50  2.3871E-002  
  462.00  2.3318E-002  
  462.50  2.2780E-002  
  463.00  2.2354E-002  
  463.50  2.1921E-002  
  464.00  2.1499E-002  
  464.50  2.1084E-002  
  465.00  2.0665E-002  
  465.50  2.0297E-002  
  466.00  1.9871E-002  
  466.50  1.9449E-002  
  467.00  1.9027E-002  
  467.50  1.8625E-002  
  468.00  1.8288E-002  
  468.50  1.7981E-002  
  469.00  1.7731E-002  
  469.50  1.7470E-002  
  470.00  1.7150E-002  
  470.50  1.6858E-002  
  471.00  1.6558E-002  
  471.50  1.6358E-002  
  472.00  1.6155E-002  
  472.50  1.5932E-002  
  473.00  1.5720E-002  
  473.50  1.5499E-002  
  474.00  1.5298E-002  
  474.50  1.5085E-002  
  475.00  1.4878E-002  
  475.50  1.4698E-002  
  476.00  1.4530E-002  
  476.50  1.4350E-002  
  477.00  1.4113E-002  
  477.50  1.3855E-002  
  478.00  1.3621E-002  
  478.50  1.3437E-002  
  479.00  1.3296E-002  
  479.50  1.3117E-002  
  480.00  1.2994E-002  
  480.50  1.2829E-002  
  481.00  1.2694E-002  
  481.50  1.2548E-002  
  482.00  1.2424E-002  
  482.50  1.2288E-002  
  483.00  1.2112E-002  
  483.50  1.1963E-002  
  484.00  1.1799E-002  
  484.50  1.1666E-002  
  485.00  1.1554E-002  
  485.50  1.1427E-002  
  486.00  1.1323E-002  
  486.50  1.1282E-002  
  487.00  1.1235E-002  
  487.50  1.1222E-002  
  488.00  1.1242E-002  
  488.50  1.1208E-002  
  489.00  1.1221E-002  
  489.50  1.1227E-002  
  490.00  1.1199E-002  
  490.50  1.1215E-002  
  491.00  1.1226E-002  
  491.50  1.1315E-002  
  492.00  1.1445E-002  
  492.50  1.1545E-002  
  493.00  1.1650E-002  
  493.50  1.1677E-002  
  494.00  1.1683E-002  
  494.50  1.1720E-002  
  495.00  1.1772E-002  
  495.50  1.1908E-002  
  496.00  1.2088E-002  
  496.50  1.2301E-002  
  497.00  1.2527E-002  
  497.50  1.2696E-002  
  498.00  1.2828E-002  
  498.50  1.3003E-002  
  499.00  1.3206E-002  
  499.50  1.3441E-002  
  500.00  1.3635E-002  
  500.50  1.3843E-002  
  501.00  1.4063E-002  
  501.50  1.4317E-002  
  502.00  1.4606E-002  
  502.50  1.4916E-002  
  503.00  1.5230E-002  
  503.50  1.5545E-002  
  504.00  1.5892E-002  
  504.50  1.6199E-002  
  505.00  1.6503E-002  
  505.50  1.6768E-002  
  506.00  1.7049E-002  
  506.50  1.7383E-002  
  507.00  1.7759E-002  
  507.50  1.8158E-002  
  508.00  1.8541E-002  
  508.50  1.8915E-002  
  509.00  1.9237E-002  
  509.50  1.9599E-002  
  510.00  1.9981E-002  
  510.50  2.0330E-002  
  511.00  2.0695E-002  
  511.50  2.1044E-002  
  512.00  2.1450E-002  
  512.50  2.1838E-002  
  513.00  2.2241E-002  
  513.50  2.2660E-002  
  514.00  2.3059E-002  
  514.50  2.3450E-002  
  515.00  2.3763E-002  
  515.50  2.4100E-002  
  516.00  2.4483E-002  
  516.50  2.4896E-002  
  517.00  2.5287E-002  
  517.50  2.5690E-002  
  518.00  2.6080E-002  
  518.50  2.6517E-002  
  519.00  2.6922E-002  
  519.50  2.7315E-002  
  520.00  2.7714E-002  
  520.50  2.8062E-002  
  521.00  2.8403E-002  
  521.50  2.8753E-002  
  522.00  2.9072E-002  
  522.50  2.9436E-002  
  523.00  2.9772E-002  
  523.50  3.0143E-002  
  524.00  3.0546E-002  
  524.50  3.0919E-002  
  525.00  3.1262E-002  
  525.50  3.1618E-002  
  526.00  3.1941E-002  
  526.50  3.2294E-002  
  527.00  3.2604E-002  
  527.50  3.2884E-002  
  528.00  3.3141E-002  
  528.50  3.3440E-002  
  529.00  3.3791E-002  
  529.50  3.4194E-002  
  530.00  3.4577E-002  
  530.50  3.4932E-002  
  531.00  3.5238E-002  
  531.50  3.5567E-002  
  532.00  3.5843E-002  
  532.50  3.6116E-002  
  533.00  3.6371E-002  
  533.50  3.6651E-002  
  534.00  3.6962E-002  
  534.50  3.7282E-002  
  535.00  3.7598E-002  
  535.50  3.7906E-002  
  536.00  3.8165E-002  
  536.50  3.8414E-002  
  537.00  3.8674E-002  
  537.50  3.8883E-002  
  538.00  3.9109E-002  
  538.50  3.9347E-002  
  539.00  3.9723E-002  
  539.50  4.0054E-002  
  540.00  4.0297E-002  
  540.50  4.0513E-002  
  541.00  4.0773E-002  
  541.50  4.1122E-002  
  542.00  4.1431E-002  
  542.50  4.1631E-002  
  543.00  4.1776E-002  
  543.50  4.1883E-002  
  544.00  4.2060E-002  
  544.50  4.2372E-002  
  545.00  4.2707E-002  
  545.50  4.3025E-002  
  546.00  4.3303E-002  
  546.50  4.3550E-002  
  547.00  4.3797E-002  
  547.50  4.4002E-002  
  548.00  4.4214E-002  
  548.50  4.4482E-002  
  549.00  4.4841E-002  
  549.50  4.5131E-002  
  550.00  4.5343E-002  
  550.50  4.5506E-002  
  551.00  4.5718E-002  
  551.50  4.6059E-002  
  552.00  4.6404E-002  
  552.50  4.6727E-002  
  553.00  4.6990E-002  
  553.50  4.7242E-002  
  554.00  4.7496E-002  
  554.50  4.7726E-002  
  555.00  4.7904E-002  
  555.50  4.8154E-002  
  556.00  4.8425E-002  
  556.50  4.8731E-002  
  557.00  4.9054E-002  
  557.50  4.9439E-002  
  558.00  4.9833E-002  
  558.50  5.0174E-002  
  559.00  5.0536E-002  
  559.50  5.0837E-002  
  560.00  5.1183E-002  
  560.50  5.1400E-002  
  561.00  5.1518E-002  
  561.50  5.1642E-002  
  562.00  5.1879E-002  
  562.50  5.2211E-002  
  563.00  5.2591E-002  
  563.50  5.2894E-002  
  564.00  5.3124E-002  
  564.50  5.3319E-002  
  565.00  5.3505E-002  
  565.50  5.3689E-002  
  566.00  5.3958E-002  
  566.50  5.4260E-002  
  567.00  5.4575E-002  
  567.50  5.4918E-002  
  568.00  5.5226E-002  
  568.50  5.5533E-002  
  569.00  5.5784E-002  
  569.50  5.6029E-002  
  570.00  5.6299E-002  
  570.50  5.6560E-002  
  571.00  5.6802E-002  
  571.50  5.7045E-002  
  572.00  5.7332E-002  
  572.50  5.7610E-002  
  573.00  5.7870E-002  
  573.50  5.8104E-002  
  574.00  5.8268E-002  
  574.50  5.8464E-002  
  575.00  5.8732E-002  
  575.50  5.8994E-002  
  576.00  5.9266E-002  
  576.50  5.9423E-002  
  577.00  5.9642E-002  
  577.50  5.9971E-002  
  578.00  6.0324E-002  
  578.50  6.0685E-002  
  579.00  6.0984E-002  
  579.50  6.1264E-002  
  580.00  6.1465E-002  
  580.50  6.1569E-002  
  581.00  6.1712E-002  
  581.50  6.1909E-002  
  582.00  6.2218E-002  
  582.50  6.2499E-002  
  583.00  6.2655E-002  
  583.50  6.2975E-002  
  584.00  6.3207E-002  
  584.50  6.3400E-002  
  585.00  6.3450E-002  
  585.50  6.3521E-002  
  586.00  6.3728E-002  
  586.50  6.3966E-002  
  587.00  6.4121E-002  
  587.50  6.4326E-002  
  588.00  6.4534E-002  
  588.50  6.4722E-002  
  589.00  6.4873E-002  
  589.50  6.4900E-002  
  590.00  6.5099E-002  
  590.50  6.5326E-002  
  591.00  6.5569E-002  
  591.50  6.5747E-002  
  592.00  6.5898E-002  
  592.50  6.5958E-002  
  593.00  6.6040E-002  
  593.50  6.6038E-002  
  594.00  6.6190E-002  
  594.50  6.6386E-002  
  595.00  6.6612E-002  
  595.50  6.6620E-002  
  596.00  6.6579E-002  
  596.50  6.6602E-002  
  597.00  6.6806E-002  
  597.50  6.6919E-002  
  598.00  6.6840E-002  
  598.50  6.6782E-002  
  599.00  6.6784E-002  
  599.50  6.6832E-002  
  600.00  6.6807E-002  
  600.50  6.6817E-002  
  601.00  6.6872E-002  
  601.50  6.6815E-002  
  602.00  6.6767E-002  
  602.50  6.6711E-002  
  603.00  6.6695E-002  
  603.50  6.6694E-002  
  604.00  6.6698E-002  
  604.50  6.6749E-002  
  605.00  6.6588E-002  
  605.50  6.6365E-002  
  606.00  6.6170E-002  
  606.50  6.6151E-002  
  607.00  6.6092E-002  
  607.50  6.6045E-002  
  608.00  6.6003E-002  
  608.50  6.5998E-002  
  609.00  6.6001E-002  
  609.50  6.5883E-002  
  610.00  6.5687E-002  
  610.50  6.5326E-002  
  611.00  6.5011E-002  
  611.50  6.4812E-002  
  612.00  6.4772E-002  
  612.50  6.4655E-002  
  613.00  6.4490E-002  
  613.50  6.4275E-002  
  614.00  6.4132E-002  
  614.50  6.3968E-002  
  615.00  6.3750E-002  
  615.50  6.3498E-002  
  616.00  6.3277E-002  
  616.50  6.3047E-002  
  617.00  6.2830E-002  
  617.50  6.2547E-002  
  618.00  6.2295E-002  
  618.50  6.2042E-002  
  619.00  6.1826E-002  
  619.50  6.1622E-002  
  620.00  6.1339E-002  
  620.50  6.1076E-002  
  621.00  6.0851E-002  
  621.50  6.0649E-002  
  622.00  6.0427E-002  
  622.50  6.0118E-002  
  623.00  5.9889E-002  
  623.50  5.9583E-002  
  624.00  5.9282E-002  
  624.50  5.8981E-002  
  625.00  5.8795E-002  
  625.50  5.8641E-002  
  626.00  5.8292E-002  
  626.50  5.7841E-002  
  627.00  5.7408E-002  
  627.50  5.7099E-002  
  628.00  5.6872E-002  
  628.50  5.6567E-002  
  629.00  5.6256E-002  
  629.50  5.5855E-002  
  630.00  5.5461E-002  
  630.50  5.5103E-002  
  631.00  5.4804E-002  
  631.50  5.4583E-002  
  632.00  5.4340E-002  
  632.50  5.4024E-002  
  633.00  5.3614E-002  
  633.50  5.3169E-002  
  634.00  5.2734E-002  
  634.50  5.2333E-002  
  635.00  5.1898E-002  
  635.50  5.1526E-002  
  636.00  5.1219E-002  
  636.50  5.1030E-002  
  637.00  5.0729E-002  
  637.50  5.0337E-002  
  638.00  4.9783E-002  
  638.50  4.9304E-002  
  639.00  4.8864E-002  
  639.50  4.8534E-002  
  640.00  4.8214E-002  
  640.50  4.7865E-002  
  641.00  4.7413E-002  
  641.50  4.6978E-002  
  642.00  4.6661E-002  
  642.50  4.6355E-002  
  643.00  4.5973E-002  
  643.50  4.5497E-002  
  644.00  4.5144E-002  
  644.50  4.4804E-002  
  645.00  4.4488E-002  
  645.50  4.4061E-002  
  646.00  4.3663E-002  
  646.50  4.3293E-002  
  647.00  4.2966E-002  
  647.50  4.2644E-002  
  648.00  4.2220E-002  
  648.50  4.1770E-002  
  649.00  4.1391E-002  
  649.50  4.0965E-002  
  650.00  4.0580E-002  
  650.50  4.0193E-002  
  651.00  3.9834E-002  
  651.50  3.9426E-002  
  652.00  3.8955E-002  
  652.50  3.8635E-002  
  653.00  3.8314E-002  
  653.50  3.7940E-002  
  654.00  3.7466E-002  
  654.50  3.7028E-002  
  655.00  3.6629E-002  
  655.50  3.6168E-002  
  656.00  3.5782E-002  
  656.50  3.5472E-002  
  657.00  3.5140E-002  
  657.50  3.4783E-002  
  658.00  3.4361E-002  
  658.50  3.4024E-002  
  659.00  3.3673E-002  
  659.50  3.3259E-002  
  660.00  3.2824E-002  
  660.50  3.2471E-002  
  661.00  3.2112E-002  
  661.50  3.1827E-002  
  662.00  3.1453E-002  
  662.50  3.1168E-002  
  663.00  3.0821E-002  
  663.50  3.0520E-002  
  664.00  3.0093E-002  
  664.50  2.9619E-002  
  665.00  2.9156E-002  
  665.50  2.8845E-002  
  666.00  2.8517E-002  
  666.50  2.8161E-002  
  667.00  2.7823E-002  
  667.50  2.7591E-002  
  668.00  2.7201E-002  
  668.50  2.6739E-002  
  669.00  2.6368E-002  
  669.50  2.6130E-002  
  670.00  2.5951E-002  
  670.50  2.5621E-002  
  671.00  2.5299E-002  
  671.50  2.4983E-002  
  672.00  2.4670E-002  
  672.50  2.4308E-002  
  673.00  2.3943E-002  
  673.50  2.3633E-002  
  674.00  2.3314E-002  
  674.50  2.2933E-002  
  675.00  2.2646E-002  
  675.50  2.2443E-002  
  676.00  2.2220E-002  
  676.50  2.1910E-002  
  677.00  2.1638E-002  
  677.50  2.1419E-002  
  678.00  2.1155E-002  
  678.50  2.0788E-002  
  679.00  2.0523E-002  
  679.50  2.0256E-002  
