
# From lspdd.org
# 
# Name: DEL Sylvania A19 Domestique
# Indice spectral Valeur 
# MSI 0.33 
# SLI 0.53 
# IPI 0.71 
# Pourcentage de bleu 19.5 
# Caractéristique Valeur 
# CCT calculée (K) 3045 
# CCT du fabricant (K) 3048 
# Tension (V) 120 
# Puissance (W) 8.0 
# Efficacité lumineuse (Lum/W) 54.0 
#
# Image: '/app/system/img_2s/2609/medium_image2.JPG?1413486663'
# Image: '/app/system/img_1s/2609/medium_image1.jpg?1413486666'
# 

  273.00  0.0000E+000  
  273.50  0.0000E+000  
  274.00  0.0000E+000  
  274.50  0.0000E+000  
  275.00  0.0000E+000  
  275.50  0.0000E+000  
  276.00  0.0000E+000  
  276.50  0.0000E+000  
  277.00  0.0000E+000  
  277.50  0.0000E+000  
  278.00  0.0000E+000  
  278.50  0.0000E+000  
  279.00  0.0000E+000  
  279.50  0.0000E+000  
  280.00  0.0000E+000  
  280.50  0.0000E+000  
  281.00  0.0000E+000  
  281.50  0.0000E+000  
  282.00  0.0000E+000  
  282.50  0.0000E+000  
  283.00  0.0000E+000  
  283.50  0.0000E+000  
  284.00  0.0000E+000  
  284.50  0.0000E+000  
  285.00  0.0000E+000  
  285.50  0.0000E+000  
  286.00  0.0000E+000  
  286.50  0.0000E+000  
  287.00  0.0000E+000  
  287.50  0.0000E+000  
  288.00  0.0000E+000  
  288.50  0.0000E+000  
  289.00  0.0000E+000  
  289.50  0.0000E+000  
  290.00  0.0000E+000  
  290.50  0.0000E+000  
  291.00  0.0000E+000  
  291.50  0.0000E+000  
  292.00  0.0000E+000  
  292.50  0.0000E+000  
  293.00  0.0000E+000  
  293.50  0.0000E+000  
  294.00  0.0000E+000  
  294.50  0.0000E+000  
  295.00  0.0000E+000  
  295.50  0.0000E+000  
  296.00  0.0000E+000  
  296.50  0.0000E+000  
  297.00  0.0000E+000  
  297.50  0.0000E+000  
  298.00  0.0000E+000  
  298.50  0.0000E+000  
  299.00  0.0000E+000  
  299.50  0.0000E+000  
  300.00  4.2463E-005  
  300.50  1.2774E-004  
  301.00  1.5600E-004  
  301.50  1.5860E-004  
  302.00  1.2373E-004  
  302.50  1.0130E-004  
  303.00  8.2634E-005  
  303.50  1.2669E-004  
  304.00  1.5802E-004  
  304.50  1.2621E-004  
  305.00  7.2285E-005  
  305.50  1.2720E-005  
  306.00  0.0000E+000  
  306.50  0.0000E+000  
  307.00  7.5496E-006  
  307.50  5.6354E-005  
  308.00  7.9996E-005  
  308.50  7.8295E-005  
  309.00  1.0521E-005  
  309.50  0.0000E+000  
  310.00  0.0000E+000  
  310.50  0.0000E+000  
  311.00  2.0705E-005  
  311.50  0.0000E+000  
  312.00  0.0000E+000  
  312.50  0.0000E+000  
  313.00  0.0000E+000  
  313.50  0.0000E+000  
  314.00  0.0000E+000  
  314.50  1.6979E-005  
  315.00  6.3039E-006  
  315.50  0.0000E+000  
  316.00  0.0000E+000  
  316.50  0.0000E+000  
  317.00  0.0000E+000  
  317.50  0.0000E+000  
  318.00  0.0000E+000  
  318.50  0.0000E+000  
  319.00  0.0000E+000  
  319.50  0.0000E+000  
  320.00  5.8702E-005  
  320.50  1.1470E-004  
  321.00  7.4717E-005  
  321.50  7.1882E-005  
  322.00  2.5320E-005  
  322.50  3.9405E-005  
  323.00  7.5489E-005  
  323.50  4.9025E-005  
  324.00  8.9460E-005  
  324.50  1.3946E-004  
  325.00  1.4425E-004  
  325.50  1.5397E-004  
  326.00  8.1507E-005  
  326.50  2.1485E-005  
  327.00  7.3545E-006  
  327.50  2.2000E-005  
  328.00  5.2378E-005  
  328.50  9.6209E-005  
  329.00  1.2029E-004  
  329.50  1.4385E-004  
  330.00  1.5097E-004  
  330.50  1.4951E-004  
  331.00  1.5417E-004  
  331.50  1.2369E-004  
  332.00  9.2571E-005  
  332.50  4.0306E-005  
  333.00  1.6629E-007  
  333.50  2.2331E-005  
  334.00  7.8604E-005  
  334.50  1.4328E-004  
  335.00  1.7400E-004  
  335.50  1.7005E-004  
  336.00  1.5604E-004  
  336.50  1.2031E-004  
  337.00  8.1330E-005  
  337.50  8.1821E-005  
  338.00  1.1218E-004  
  338.50  1.6355E-004  
  339.00  2.2927E-004  
  339.50  2.1048E-004  
  340.00  2.2134E-004  
  340.50  1.7498E-004  
  341.00  1.4542E-004  
  341.50  1.0637E-004  
  342.00  6.4090E-005  
  342.50  6.2068E-005  
  343.00  7.0409E-005  
  343.50  8.5263E-005  
  344.00  8.3582E-005  
  344.50  6.8136E-005  
  345.00  3.5499E-005  
  345.50  2.0953E-005  
  346.00  4.7704E-005  
  346.50  8.8946E-005  
  347.00  1.3904E-004  
  347.50  1.1635E-004  
  348.00  9.5005E-005  
  348.50  9.2715E-005  
  349.00  8.2118E-005  
  349.50  8.4585E-005  
  350.00  4.1011E-005  
  350.50  1.0428E-006  
  351.00  0.0000E+000  
  351.50  0.0000E+000  
  352.00  2.2005E-005  
  352.50  4.3774E-005  
  353.00  4.5848E-005  
  353.50  6.0212E-005  
  354.00  5.1780E-005  
  354.50  5.6615E-005  
  355.00  6.8095E-005  
  355.50  3.4888E-005  
  356.00  2.8671E-005  
  356.50  3.2363E-006  
  357.00  0.0000E+000  
  357.50  0.0000E+000  
  358.00  1.6251E-005  
  358.50  1.0477E-004  
  359.00  1.3985E-004  
  359.50  1.5750E-004  
  360.00  1.4643E-004  
  360.50  1.1651E-004  
  361.00  9.0738E-005  
  361.50  5.2231E-005  
  362.00  4.6126E-005  
  362.50  1.4120E-005  
  363.00  2.7240E-006  
  363.50  2.1383E-005  
  364.00  5.4855E-005  
  364.50  9.2518E-005  
  365.00  1.1542E-004  
  365.50  1.0431E-004  
  366.00  5.3550E-005  
  366.50  1.6852E-005  
  367.00  0.0000E+000  
  367.50  5.2790E-006  
  368.00  2.7822E-005  
  368.50  8.1915E-005  
  369.00  1.3540E-004  
  369.50  1.4233E-004  
  370.00  1.1890E-004  
  370.50  1.1398E-004  
  371.00  1.3719E-004  
  371.50  1.5755E-004  
  372.00  1.8436E-004  
  372.50  1.7108E-004  
  373.00  1.1949E-004  
  373.50  1.0249E-004  
  374.00  9.5188E-005  
  374.50  9.0418E-005  
  375.00  8.8715E-005  
  375.50  1.0283E-004  
  376.00  1.0103E-004  
  376.50  7.0843E-005  
  377.00  7.2963E-005  
  377.50  2.4758E-005  
  378.00  1.8078E-005  
  378.50  7.3777E-006  
  379.00  0.0000E+000  
  379.50  0.0000E+000  
  380.00  0.0000E+000  
  380.50  0.0000E+000  
  381.00  0.0000E+000  
  381.50  0.0000E+000  
  382.00  3.2599E-006  
  382.50  8.8158E-005  
  383.00  1.3795E-004  
  383.50  1.2482E-004  
  384.00  9.6253E-005  
  384.50  4.4810E-005  
  385.00  2.1575E-005  
  385.50  2.6792E-005  
  386.00  5.0319E-005  
  386.50  6.5099E-005  
  387.00  9.2157E-005  
  387.50  8.9886E-005  
  388.00  3.8367E-005  
  388.50  1.4779E-005  
  389.00  3.4613E-005  
  389.50  3.5808E-005  
  390.00  8.5531E-005  
  390.50  1.5223E-004  
  391.00  1.9030E-004  
  391.50  2.1976E-004  
  392.00  2.4243E-004  
  392.50  2.1229E-004  
  393.00  2.1701E-004  
  393.50  1.8146E-004  
  394.00  8.3180E-005  
  394.50  5.7425E-005  
  395.00  3.5902E-005  
  395.50  4.6552E-005  
  396.00  6.0090E-005  
  396.50  4.0803E-005  
  397.00  4.7065E-005  
  397.50  4.8523E-005  
  398.00  3.1964E-005  
  398.50  3.0603E-005  
  399.00  1.0995E-004  
  399.50  2.0036E-004  
  400.00  2.6006E-004  
  400.50  2.3710E-004  
  401.00  2.2230E-004  
  401.50  2.3782E-004  
  402.00  2.3089E-004  
  402.50  2.2133E-004  
  403.00  1.3243E-004  
  403.50  1.0826E-004  
  404.00  8.5752E-005  
  404.50  5.8289E-005  
  405.00  8.9180E-005  
  405.50  1.4500E-004  
  406.00  2.2694E-004  
  406.50  2.3333E-004  
  407.00  1.6665E-004  
  407.50  1.3995E-004  
  408.00  1.3678E-004  
  408.50  1.8073E-004  
  409.00  1.9585E-004  
  409.50  2.1891E-004  
  410.00  2.5223E-004  
  410.50  3.2904E-004  
  411.00  3.7720E-004  
  411.50  3.6590E-004  
  412.00  3.3258E-004  
  412.50  2.6432E-004  
  413.00  3.0193E-004  
  413.50  3.4256E-004  
  414.00  4.3580E-004  
  414.50  5.1703E-004  
  415.00  5.5379E-004  
  415.50  5.3470E-004  
  416.00  4.9331E-004  
  416.50  4.4778E-004  
  417.00  4.5921E-004  
  417.50  4.9312E-004  
  418.00  5.1590E-004  
  418.50  5.7759E-004  
  419.00  6.0351E-004  
  419.50  6.4793E-004  
  420.00  7.0999E-004  
  420.50  7.3218E-004  
  421.00  7.5743E-004  
  421.50  8.0667E-004  
  422.00  8.7261E-004  
  422.50  1.0118E-003  
  423.00  1.1467E-003  
  423.50  1.2335E-003  
  424.00  1.2770E-003  
  424.50  1.3105E-003  
  425.00  1.3695E-003  
  425.50  1.4190E-003  
  426.00  1.5292E-003  
  426.50  1.6049E-003  
  427.00  1.7300E-003  
  427.50  1.8426E-003  
  428.00  1.9620E-003  
  428.50  2.0718E-003  
  429.00  2.1622E-003  
  429.50  2.3022E-003  
  430.00  2.4565E-003  
  430.50  2.6352E-003  
  431.00  2.8339E-003  
  431.50  3.0108E-003  
  432.00  3.2214E-003  
  432.50  3.4025E-003  
  433.00  3.5817E-003  
  433.50  3.7611E-003  
  434.00  3.9466E-003  
  434.50  4.1769E-003  
  435.00  4.4191E-003  
  435.50  4.6394E-003  
  436.00  4.8452E-003  
  436.50  5.0586E-003  
  437.00  5.2927E-003  
  437.50  5.5365E-003  
  438.00  5.7855E-003  
  438.50  6.0341E-003  
  439.00  6.3697E-003  
  439.50  6.8616E-003  
  440.00  7.3272E-003  
  440.50  7.7276E-003  
  441.00  8.0365E-003  
  441.50  8.3281E-003  
  442.00  8.7255E-003  
  442.50  9.1658E-003  
  443.00  9.6396E-003  
  443.50  1.0061E-002  
  444.00  1.0518E-002  
  444.50  1.1014E-002  
  445.00  1.1542E-002  
  445.50  1.2127E-002  
  446.00  1.2655E-002  
  446.50  1.3140E-002  
  447.00  1.3564E-002  
  447.50  1.3942E-002  
  448.00  1.4310E-002  
  448.50  1.4625E-002  
  449.00  1.4908E-002  
  449.50  1.5110E-002  
  450.00  1.5288E-002  
  450.50  1.5424E-002  
  451.00  1.5457E-002  
  451.50  1.5446E-002  
  452.00  1.5339E-002  
  452.50  1.5186E-002  
  453.00  1.4897E-002  
  453.50  1.4569E-002  
  454.00  1.4153E-002  
  454.50  1.3683E-002  
  455.00  1.3298E-002  
  455.50  1.2785E-002  
  456.00  1.2266E-002  
  456.50  1.1802E-002  
  457.00  1.1343E-002  
  457.50  1.0973E-002  
  458.00  1.0580E-002  
  458.50  1.0190E-002  
  459.00  9.7614E-003  
  459.50  9.3503E-003  
  460.00  8.9986E-003  
  460.50  8.6649E-003  
  461.00  8.4056E-003  
  461.50  8.1288E-003  
  462.00  7.8820E-003  
  462.50  7.6862E-003  
  463.00  7.5098E-003  
  463.50  7.3661E-003  
  464.00  7.1465E-003  
  464.50  6.9669E-003  
  465.00  6.7844E-003  
  465.50  6.6944E-003  
  466.00  6.6182E-003  
  466.50  6.5134E-003  
  467.00  6.3286E-003  
  467.50  6.1665E-003  
  468.00  5.9758E-003  
  468.50  5.7955E-003  
  469.00  5.6646E-003  
  469.50  5.4787E-003  
  470.00  5.3406E-003  
  470.50  5.1997E-003  
  471.00  5.0337E-003  
  471.50  4.8472E-003  
  472.00  4.6553E-003  
  472.50  4.5303E-003  
  473.00  4.4558E-003  
  473.50  4.4112E-003  
  474.00  4.3332E-003  
  474.50  4.2039E-003  
  475.00  4.0778E-003  
  475.50  3.9717E-003  
  476.00  3.8778E-003  
  476.50  3.8427E-003  
  477.00  3.8031E-003  
  477.50  3.8144E-003  
  478.00  3.7602E-003  
  478.50  3.7121E-003  
  479.00  3.6397E-003  
  479.50  3.5906E-003  
  480.00  3.6000E-003  
  480.50  3.5915E-003  
  481.00  3.6160E-003  
  481.50  3.6152E-003  
  482.00  3.6027E-003  
  482.50  3.6031E-003  
  483.00  3.5838E-003  
  483.50  3.6069E-003  
  484.00  3.6011E-003  
  484.50  3.6124E-003  
  485.00  3.6216E-003  
  485.50  3.6417E-003  
  486.00  3.6880E-003  
  486.50  3.6855E-003  
  487.00  3.7373E-003  
  487.50  3.8016E-003  
  488.00  3.8888E-003  
  488.50  3.9591E-003  
  489.00  4.0078E-003  
  489.50  4.0429E-003  
  490.00  4.1033E-003  
  490.50  4.1431E-003  
  491.00  4.2103E-003  
  491.50  4.2687E-003  
  492.00  4.3147E-003  
  492.50  4.3684E-003  
  493.00  4.4440E-003  
  493.50  4.5434E-003  
  494.00  4.6508E-003  
  494.50  4.7736E-003  
  495.00  4.8899E-003  
  495.50  5.0049E-003  
  496.00  5.1310E-003  
  496.50  5.2458E-003  
  497.00  5.3793E-003  
  497.50  5.5102E-003  
  498.00  5.6434E-003  
  498.50  5.7756E-003  
  499.00  5.9103E-003  
  499.50  6.0445E-003  
  500.00  6.1775E-003  
  500.50  6.3063E-003  
  501.00  6.4228E-003  
  501.50  6.5732E-003  
  502.00  6.7284E-003  
  502.50  6.8730E-003  
  503.00  7.0194E-003  
  503.50  7.1725E-003  
  504.00  7.3638E-003  
  504.50  7.5254E-003  
  505.00  7.6620E-003  
  505.50  7.7683E-003  
  506.00  7.9113E-003  
  506.50  8.0606E-003  
  507.00  8.2369E-003  
  507.50  8.4195E-003  
  508.00  8.6147E-003  
  508.50  8.7708E-003  
  509.00  8.9257E-003  
  509.50  9.0599E-003  
  510.00  9.2104E-003  
  510.50  9.3677E-003  
  511.00  9.5316E-003  
  511.50  9.6922E-003  
  512.00  9.8395E-003  
  512.50  9.9615E-003  
  513.00  1.0106E-002  
  513.50  1.0301E-002  
  514.00  1.0490E-002  
  514.50  1.0668E-002  
  515.00  1.0811E-002  
  515.50  1.0968E-002  
  516.00  1.1105E-002  
  516.50  1.1275E-002  
  517.00  1.1442E-002  
  517.50  1.1626E-002  
  518.00  1.1757E-002  
  518.50  1.1869E-002  
  519.00  1.1949E-002  
  519.50  1.2061E-002  
  520.00  1.2194E-002  
  520.50  1.2370E-002  
  521.00  1.2536E-002  
  521.50  1.2667E-002  
  522.00  1.2780E-002  
  522.50  1.2892E-002  
  523.00  1.3062E-002  
  523.50  1.3202E-002  
  524.00  1.3330E-002  
  524.50  1.3397E-002  
  525.00  1.3477E-002  
  525.50  1.3597E-002  
  526.00  1.3719E-002  
  526.50  1.3917E-002  
  527.00  1.4065E-002  
  527.50  1.4182E-002  
  528.00  1.4279E-002  
  528.50  1.4358E-002  
  529.00  1.4483E-002  
  529.50  1.4610E-002  
  530.00  1.4722E-002  
  530.50  1.4886E-002  
  531.00  1.5014E-002  
  531.50  1.5136E-002  
  532.00  1.5285E-002  
  532.50  1.5409E-002  
  533.00  1.5512E-002  
  533.50  1.5555E-002  
  534.00  1.5585E-002  
  534.50  1.5691E-002  
  535.00  1.5820E-002  
  535.50  1.5950E-002  
  536.00  1.6050E-002  
  536.50  1.6143E-002  
  537.00  1.6213E-002  
  537.50  1.6293E-002  
  538.00  1.6390E-002  
  538.50  1.6521E-002  
  539.00  1.6623E-002  
  539.50  1.6713E-002  
  540.00  1.6779E-002  
  540.50  1.6809E-002  
  541.00  1.6890E-002  
  541.50  1.6993E-002  
  542.00  1.7128E-002  
  542.50  1.7212E-002  
  543.00  1.7238E-002  
  543.50  1.7252E-002  
  544.00  1.7361E-002  
  544.50  1.7511E-002  
  545.00  1.7663E-002  
  545.50  1.7836E-002  
  546.00  1.7932E-002  
  546.50  1.8005E-002  
  547.00  1.8070E-002  
  547.50  1.8111E-002  
  548.00  1.8190E-002  
  548.50  1.8240E-002  
  549.00  1.8295E-002  
  549.50  1.8370E-002  
  550.00  1.8479E-002  
  550.50  1.8589E-002  
  551.00  1.8699E-002  
  551.50  1.8746E-002  
  552.00  1.8786E-002  
  552.50  1.8852E-002  
  553.00  1.8913E-002  
  553.50  1.8994E-002  
  554.00  1.9063E-002  
  554.50  1.9140E-002  
  555.00  1.9212E-002  
  555.50  1.9271E-002  
  556.00  1.9323E-002  
  556.50  1.9369E-002  
  557.00  1.9398E-002  
  557.50  1.9498E-002  
  558.00  1.9644E-002  
  558.50  1.9748E-002  
  559.00  1.9852E-002  
  559.50  1.9870E-002  
  560.00  1.9950E-002  
  560.50  1.9988E-002  
  561.00  2.0039E-002  
  561.50  2.0091E-002  
  562.00  2.0178E-002  
  562.50  2.0283E-002  
  563.00  2.0290E-002  
  563.50  2.0258E-002  
  564.00  2.0251E-002  
  564.50  2.0334E-002  
  565.00  2.0470E-002  
  565.50  2.0544E-002  
  566.00  2.0604E-002  
  566.50  2.0611E-002  
  567.00  2.0602E-002  
  567.50  2.0635E-002  
  568.00  2.0697E-002  
  568.50  2.0768E-002  
  569.00  2.0801E-002  
  569.50  2.0839E-002  
  570.00  2.0889E-002  
  570.50  2.0943E-002  
  571.00  2.1007E-002  
  571.50  2.1057E-002  
  572.00  2.1133E-002  
  572.50  2.1134E-002  
  573.00  2.1190E-002  
  573.50  2.1238E-002  
  574.00  2.1319E-002  
  574.50  2.1363E-002  
  575.00  2.1395E-002  
  575.50  2.1464E-002  
  576.00  2.1524E-002  
  576.50  2.1555E-002  
  577.00  2.1582E-002  
  577.50  2.1621E-002  
  578.00  2.1687E-002  
  578.50  2.1724E-002  
  579.00  2.1763E-002  
  579.50  2.1832E-002  
  580.00  2.1890E-002  
  580.50  2.1981E-002  
  581.00  2.1978E-002  
  581.50  2.2018E-002  
  582.00  2.1993E-002  
  582.50  2.2012E-002  
  583.00  2.2014E-002  
  583.50  2.2068E-002  
  584.00  2.2135E-002  
  584.50  2.2235E-002  
  585.00  2.2275E-002  
  585.50  2.2295E-002  
  586.00  2.2317E-002  
  586.50  2.2397E-002  
  587.00  2.2494E-002  
  587.50  2.2531E-002  
  588.00  2.2554E-002  
  588.50  2.2605E-002  
  589.00  2.2712E-002  
  589.50  2.2836E-002  
  590.00  2.2870E-002  
  590.50  2.2879E-002  
  591.00  2.2843E-002  
  591.50  2.2845E-002  
  592.00  2.2837E-002  
  592.50  2.2856E-002  
  593.00  2.2925E-002  
  593.50  2.2977E-002  
  594.00  2.3055E-002  
  594.50  2.3114E-002  
  595.00  2.3226E-002  
  595.50  2.3269E-002  
  596.00  2.3285E-002  
  596.50  2.3275E-002  
  597.00  2.3290E-002  
  597.50  2.3294E-002  
  598.00  2.3318E-002  
  598.50  2.3320E-002  
  599.00  2.3353E-002  
  599.50  2.3377E-002  
  600.00  2.3428E-002  
  600.50  2.3472E-002  
  601.00  2.3487E-002  
  601.50  2.3588E-002  
  602.00  2.3648E-002  
  602.50  2.3713E-002  
  603.00  2.3660E-002  
  603.50  2.3632E-002  
  604.00  2.3662E-002  
  604.50  2.3747E-002  
  605.00  2.3856E-002  
  605.50  2.3943E-002  
  606.00  2.3920E-002  
  606.50  2.3844E-002  
  607.00  2.3823E-002  
  607.50  2.3878E-002  
  608.00  2.3938E-002  
  608.50  2.3923E-002  
  609.00  2.3966E-002  
  609.50  2.4040E-002  
  610.00  2.4157E-002  
  610.50  2.4181E-002  
  611.00  2.4207E-002  
  611.50  2.4196E-002  
  612.00  2.4146E-002  
  612.50  2.4117E-002  
  613.00  2.4122E-002  
  613.50  2.4169E-002  
  614.00  2.4098E-002  
  614.50  2.4158E-002  
  615.00  2.4208E-002  
  615.50  2.4293E-002  
  616.00  2.4286E-002  
  616.50  2.4225E-002  
  617.00  2.4165E-002  
  617.50  2.4166E-002  
  618.00  2.4204E-002  
  618.50  2.4266E-002  
  619.00  2.4262E-002  
  619.50  2.4284E-002  
  620.00  2.4257E-002  
  620.50  2.4142E-002  
  621.00  2.4050E-002  
  621.50  2.4095E-002  
  622.00  2.4259E-002  
  622.50  2.4297E-002  
  623.00  2.4211E-002  
  623.50  2.4157E-002  
  624.00  2.4164E-002  
  624.50  2.4144E-002  
  625.00  2.4106E-002  
  625.50  2.4016E-002  
  626.00  2.3973E-002  
  626.50  2.3843E-002  
  627.00  2.3773E-002  
  627.50  2.3711E-002  
  628.00  2.3744E-002  
  628.50  2.3755E-002  
  629.00  2.3753E-002  
  629.50  2.3748E-002  
  630.00  2.3696E-002  
  630.50  2.3631E-002  
  631.00  2.3530E-002  
  631.50  2.3506E-002  
  632.00  2.3466E-002  
  632.50  2.3413E-002  
  633.00  2.3313E-002  
  633.50  2.3291E-002  
  634.00  2.3273E-002  
  634.50  2.3272E-002  
  635.00  2.3229E-002  
  635.50  2.3121E-002  
  636.00  2.3018E-002  
  636.50  2.2870E-002  
  637.00  2.2831E-002  
  637.50  2.2796E-002  
  638.00  2.2807E-002  
  638.50  2.2727E-002  
  639.00  2.2619E-002  
  639.50  2.2527E-002  
  640.00  2.2469E-002  
  640.50  2.2390E-002  
  641.00  2.2293E-002  
  641.50  2.2154E-002  
  642.00  2.2033E-002  
  642.50  2.1870E-002  
  643.00  2.1778E-002  
  643.50  2.1679E-002  
  644.00  2.1654E-002  
  644.50  2.1580E-002  
  645.00  2.1539E-002  
  645.50  2.1414E-002  
  646.00  2.1334E-002  
  646.50  2.1231E-002  
  647.00  2.1169E-002  
  647.50  2.1036E-002  
  648.00  2.0984E-002  
  648.50  2.0913E-002  
  649.00  2.0852E-002  
  649.50  2.0689E-002  
  650.00  2.0539E-002  
  650.50  2.0304E-002  
  651.00  2.0112E-002  
  651.50  1.9872E-002  
  652.00  1.9744E-002  
  652.50  1.9706E-002  
  653.00  1.9675E-002  
  653.50  1.9597E-002  
  654.00  1.9464E-002  
  654.50  1.9375E-002  
  655.00  1.9309E-002  
  655.50  1.9200E-002  
  656.00  1.9024E-002  
  656.50  1.8841E-002  
  657.00  1.8674E-002  
  657.50  1.8562E-002  
  658.00  1.8454E-002  
  658.50  1.8297E-002  
  659.00  1.8165E-002  
  659.50  1.8068E-002  
  660.00  1.7918E-002  
  660.50  1.7745E-002  
  661.00  1.7540E-002  
  661.50  1.7396E-002  
  662.00  1.7241E-002  
  662.50  1.7105E-002  
  663.00  1.7059E-002  
  663.50  1.6981E-002  
  664.00  1.6897E-002  
  664.50  1.6770E-002  
  665.00  1.6608E-002  
  665.50  1.6465E-002  
  666.00  1.6283E-002  
  666.50  1.6156E-002  
  667.00  1.5949E-002  
  667.50  1.5750E-002  
  668.00  1.5489E-002  
  668.50  1.5326E-002  
  669.00  1.5248E-002  
  669.50  1.5212E-002  
  670.00  1.5103E-002  
  670.50  1.4927E-002  
  671.00  1.4732E-002  
  671.50  1.4548E-002  
  672.00  1.4357E-002  
  672.50  1.4216E-002  
  673.00  1.4124E-002  
  673.50  1.4046E-002  
  674.00  1.3925E-002  
  674.50  1.3849E-002  
  675.00  1.3776E-002  
  675.50  1.3730E-002  
  676.00  1.3541E-002  
  676.50  1.3324E-002  
  677.00  1.3119E-002  
  677.50  1.2957E-002  
  678.00  1.2780E-002  
  678.50  1.2673E-002  
  679.00  1.2652E-002  
  679.50  1.2588E-002  
  680.00  1.2494E-002  
