
# From lspdd.org
# 
# Name: DEL Philips MR16 Domestique
# Indice spectral Valeur 
# MSI 0.27 
# SLI 0.47 
# IPI 0.63 
# Pourcentage de bleu 17.7 
# Caractéristique Valeur 
# CCT calculée (K) 2880 
# CCT du fabricant (K) 3000 
# Tension (V) 120 
# Puissance (W) 10.0 
# Efficacité lumineuse (Lum/W) 49.5 
#
# Image: '/app/system/img_2s/2612/medium_image2.jpg?1413486678'
# Image: '/app/system/img_1s/2612/medium_image1.JPG?1413486679'
# 

  273.00  0.0000E+000  
  273.50  0.0000E+000  
  274.00  0.0000E+000  
  274.50  0.0000E+000  
  275.00  0.0000E+000  
  275.50  0.0000E+000  
  276.00  0.0000E+000  
  276.50  0.0000E+000  
  277.00  0.0000E+000  
  277.50  0.0000E+000  
  278.00  0.0000E+000  
  278.50  0.0000E+000  
  279.00  0.0000E+000  
  279.50  0.0000E+000  
  280.00  0.0000E+000  
  280.50  0.0000E+000  
  281.00  0.0000E+000  
  281.50  0.0000E+000  
  282.00  0.0000E+000  
  282.50  0.0000E+000  
  283.00  0.0000E+000  
  283.50  0.0000E+000  
  284.00  0.0000E+000  
  284.50  0.0000E+000  
  285.00  0.0000E+000  
  285.50  0.0000E+000  
  286.00  0.0000E+000  
  286.50  0.0000E+000  
  287.00  0.0000E+000  
  287.50  0.0000E+000  
  288.00  0.0000E+000  
  288.50  0.0000E+000  
  289.00  0.0000E+000  
  289.50  0.0000E+000  
  290.00  0.0000E+000  
  290.50  0.0000E+000  
  291.00  0.0000E+000  
  291.50  0.0000E+000  
  292.00  0.0000E+000  
  292.50  0.0000E+000  
  293.00  0.0000E+000  
  293.50  0.0000E+000  
  294.00  0.0000E+000  
  294.50  0.0000E+000  
  295.00  0.0000E+000  
  295.50  0.0000E+000  
  296.00  0.0000E+000  
  296.50  0.0000E+000  
  297.00  0.0000E+000  
  297.50  0.0000E+000  
  298.00  0.0000E+000  
  298.50  0.0000E+000  
  299.00  0.0000E+000  
  299.50  0.0000E+000  
  300.00  0.0000E+000  
  300.50  0.0000E+000  
  301.00  0.0000E+000  
  301.50  0.0000E+000  
  302.00  0.0000E+000  
  302.50  0.0000E+000  
  303.00  0.0000E+000  
  303.50  0.0000E+000  
  304.00  0.0000E+000  
  304.50  0.0000E+000  
  305.00  0.0000E+000  
  305.50  0.0000E+000  
  306.00  0.0000E+000  
  306.50  0.0000E+000  
  307.00  0.0000E+000  
  307.50  0.0000E+000  
  308.00  0.0000E+000  
  308.50  0.0000E+000  
  309.00  0.0000E+000  
  309.50  0.0000E+000  
  310.00  0.0000E+000  
  310.50  0.0000E+000  
  311.00  0.0000E+000  
  311.50  0.0000E+000  
  312.00  0.0000E+000  
  312.50  0.0000E+000  
  313.00  0.0000E+000  
  313.50  0.0000E+000  
  314.00  0.0000E+000  
  314.50  0.0000E+000  
  315.00  0.0000E+000  
  315.50  0.0000E+000  
  316.00  0.0000E+000  
  316.50  0.0000E+000  
  317.00  0.0000E+000  
  317.50  0.0000E+000  
  318.00  0.0000E+000  
  318.50  0.0000E+000  
  319.00  0.0000E+000  
  319.50  0.0000E+000  
  320.00  0.0000E+000  
  320.50  0.0000E+000  
  321.00  0.0000E+000  
  321.50  0.0000E+000  
  322.00  0.0000E+000  
  322.50  0.0000E+000  
  323.00  0.0000E+000  
  323.50  0.0000E+000  
  324.00  0.0000E+000  
  324.50  0.0000E+000  
  325.00  0.0000E+000  
  325.50  0.0000E+000  
  326.00  0.0000E+000  
  326.50  0.0000E+000  
  327.00  0.0000E+000  
  327.50  0.0000E+000  
  328.00  0.0000E+000  
  328.50  0.0000E+000  
  329.00  0.0000E+000  
  329.50  0.0000E+000  
  330.00  0.0000E+000  
  330.50  0.0000E+000  
  331.00  0.0000E+000  
  331.50  0.0000E+000  
  332.00  0.0000E+000  
  332.50  0.0000E+000  
  333.00  0.0000E+000  
  333.50  0.0000E+000  
  334.00  0.0000E+000  
  334.50  0.0000E+000  
  335.00  0.0000E+000  
  335.50  0.0000E+000  
  336.00  0.0000E+000  
  336.50  0.0000E+000  
  337.00  0.0000E+000  
  337.50  0.0000E+000  
  338.00  0.0000E+000  
  338.50  0.0000E+000  
  339.00  0.0000E+000  
  339.50  0.0000E+000  
  340.00  0.0000E+000  
  340.50  0.0000E+000  
  341.00  0.0000E+000  
  341.50  0.0000E+000  
  342.00  0.0000E+000  
  342.50  0.0000E+000  
  343.00  0.0000E+000  
  343.50  0.0000E+000  
  344.00  0.0000E+000  
  344.50  0.0000E+000  
  345.00  0.0000E+000  
  345.50  0.0000E+000  
  346.00  0.0000E+000  
  346.50  0.0000E+000  
  347.00  0.0000E+000  
  347.50  0.0000E+000  
  348.00  0.0000E+000  
  348.50  0.0000E+000  
  349.00  0.0000E+000  
  349.50  0.0000E+000  
  350.00  0.0000E+000  
  350.50  0.0000E+000  
  351.00  0.0000E+000  
  351.50  0.0000E+000  
  352.00  0.0000E+000  
  352.50  0.0000E+000  
  353.00  0.0000E+000  
  353.50  0.0000E+000  
  354.00  0.0000E+000  
  354.50  0.0000E+000  
  355.00  0.0000E+000  
  355.50  0.0000E+000  
  356.00  0.0000E+000  
  356.50  0.0000E+000  
  357.00  0.0000E+000  
  357.50  0.0000E+000  
  358.00  0.0000E+000  
  358.50  0.0000E+000  
  359.00  0.0000E+000  
  359.50  0.0000E+000  
  360.00  0.0000E+000  
  360.50  0.0000E+000  
  361.00  0.0000E+000  
  361.50  0.0000E+000  
  362.00  0.0000E+000  
  362.50  0.0000E+000  
  363.00  0.0000E+000  
  363.50  0.0000E+000  
  364.00  0.0000E+000  
  364.50  0.0000E+000  
  365.00  0.0000E+000  
  365.50  0.0000E+000  
  366.00  0.0000E+000  
  366.50  0.0000E+000  
  367.00  0.0000E+000  
  367.50  0.0000E+000  
  368.00  0.0000E+000  
  368.50  0.0000E+000  
  369.00  0.0000E+000  
  369.50  0.0000E+000  
  370.00  0.0000E+000  
  370.50  0.0000E+000  
  371.00  0.0000E+000  
  371.50  0.0000E+000  
  372.00  0.0000E+000  
  372.50  0.0000E+000  
  373.00  0.0000E+000  
  373.50  0.0000E+000  
  374.00  0.0000E+000  
  374.50  0.0000E+000  
  375.00  0.0000E+000  
  375.50  0.0000E+000  
  376.00  0.0000E+000  
  376.50  0.0000E+000  
  377.00  0.0000E+000  
  377.50  0.0000E+000  
  378.00  0.0000E+000  
  378.50  0.0000E+000  
  379.00  0.0000E+000  
  379.50  0.0000E+000  
  380.00  0.0000E+000  
  380.50  0.0000E+000  
  381.00  0.0000E+000  
  381.50  0.0000E+000  
  382.00  0.0000E+000  
  382.50  0.0000E+000  
  383.00  0.0000E+000  
  383.50  0.0000E+000  
  384.00  0.0000E+000  
  384.50  0.0000E+000  
  385.00  0.0000E+000  
  385.50  0.0000E+000  
  386.00  0.0000E+000  
  386.50  0.0000E+000  
  387.00  0.0000E+000  
  387.50  0.0000E+000  
  388.00  0.0000E+000  
  388.50  0.0000E+000  
  389.00  0.0000E+000  
  389.50  0.0000E+000  
  390.00  0.0000E+000  
  390.50  0.0000E+000  
  391.00  0.0000E+000  
  391.50  0.0000E+000  
  392.00  0.0000E+000  
  392.50  0.0000E+000  
  393.00  0.0000E+000  
  393.50  0.0000E+000  
  394.00  0.0000E+000  
  394.50  0.0000E+000  
  395.00  0.0000E+000  
  395.50  0.0000E+000  
  396.00  0.0000E+000  
  396.50  0.0000E+000  
  397.00  0.0000E+000  
  397.50  0.0000E+000  
  398.00  0.0000E+000  
  398.50  0.0000E+000  
  399.00  0.0000E+000  
  399.50  0.0000E+000  
  400.00  0.0000E+000  
  400.50  0.0000E+000  
  401.00  1.4686E-005  
  401.50  0.0000E+000  
  402.00  0.0000E+000  
  402.50  0.0000E+000  
  403.00  0.0000E+000  
  403.50  0.0000E+000  
  404.00  0.0000E+000  
  404.50  0.0000E+000  
  405.00  0.0000E+000  
  405.50  2.5993E-005  
  406.00  5.3713E-005  
  406.50  1.0157E-004  
  407.00  1.3996E-004  
  407.50  1.3831E-004  
  408.00  1.8168E-004  
  408.50  1.5648E-004  
  409.00  1.4429E-004  
  409.50  1.9523E-004  
  410.00  2.4049E-004  
  410.50  3.2195E-004  
  411.00  4.0719E-004  
  411.50  4.6037E-004  
  412.00  4.9264E-004  
  412.50  5.3803E-004  
  413.00  5.8008E-004  
  413.50  6.3529E-004  
  414.00  6.7372E-004  
  414.50  6.9809E-004  
  415.00  7.4260E-004  
  415.50  8.6658E-004  
  416.00  9.9867E-004  
  416.50  1.1616E-003  
  417.00  1.2775E-003  
  417.50  1.3949E-003  
  418.00  1.5296E-003  
  418.50  1.6527E-003  
  419.00  1.8003E-003  
  419.50  1.9495E-003  
  420.00  2.1057E-003  
  420.50  2.3470E-003  
  421.00  2.5809E-003  
  421.50  2.8506E-003  
  422.00  3.1119E-003  
  422.50  3.3024E-003  
  423.00  3.5545E-003  
  423.50  3.7824E-003  
  424.00  4.0278E-003  
  424.50  4.2978E-003  
  425.00  4.5521E-003  
  425.50  4.8384E-003  
  426.00  5.1838E-003  
  426.50  5.4889E-003  
  427.00  5.8762E-003  
  427.50  6.2778E-003  
  428.00  6.7129E-003  
  428.50  7.1412E-003  
  429.00  7.5282E-003  
  429.50  7.9526E-003  
  430.00  8.3537E-003  
  430.50  8.7802E-003  
  431.00  9.2575E-003  
  431.50  9.7546E-003  
  432.00  1.0318E-002  
  432.50  1.0893E-002  
  433.00  1.1474E-002  
  433.50  1.1997E-002  
  434.00  1.2499E-002  
  434.50  1.3001E-002  
  435.00  1.3528E-002  
  435.50  1.4127E-002  
  436.00  1.4803E-002  
  436.50  1.5464E-002  
  437.00  1.6186E-002  
  437.50  1.6882E-002  
  438.00  1.7534E-002  
  438.50  1.8145E-002  
  439.00  1.8729E-002  
  439.50  1.9420E-002  
  440.00  2.0191E-002  
  440.50  2.1010E-002  
  441.00  2.1829E-002  
  441.50  2.2645E-002  
  442.00  2.3531E-002  
  442.50  2.4415E-002  
  443.00  2.5359E-002  
  443.50  2.6251E-002  
  444.00  2.7146E-002  
  444.50  2.8253E-002  
  445.00  2.9457E-002  
  445.50  3.0727E-002  
  446.00  3.1947E-002  
  446.50  3.3125E-002  
  447.00  3.4329E-002  
  447.50  3.5543E-002  
  448.00  3.6734E-002  
  448.50  3.7759E-002  
  449.00  3.8814E-002  
  449.50  3.9961E-002  
  450.00  4.1146E-002  
  450.50  4.2197E-002  
  451.00  4.3105E-002  
  451.50  4.3730E-002  
  452.00  4.4225E-002  
  452.50  4.4683E-002  
  453.00  4.4952E-002  
  453.50  4.4979E-002  
  454.00  4.4800E-002  
  454.50  4.4336E-002  
  455.00  4.3928E-002  
  455.50  4.3479E-002  
  456.00  4.2933E-002  
  456.50  4.2306E-002  
  457.00  4.1500E-002  
  457.50  4.0597E-002  
  458.00  3.9552E-002  
  458.50  3.8357E-002  
  459.00  3.7130E-002  
  459.50  3.5951E-002  
  460.00  3.4739E-002  
  460.50  3.3634E-002  
  461.00  3.2460E-002  
  461.50  3.1387E-002  
  462.00  3.0445E-002  
  462.50  2.9584E-002  
  463.00  2.8893E-002  
  463.50  2.8156E-002  
  464.00  2.7421E-002  
  464.50  2.6692E-002  
  465.00  2.6006E-002  
  465.50  2.5477E-002  
  466.00  2.4931E-002  
  466.50  2.4416E-002  
  467.00  2.3851E-002  
  467.50  2.3359E-002  
  468.00  2.2931E-002  
  468.50  2.2575E-002  
  469.00  2.2177E-002  
  469.50  2.1722E-002  
  470.00  2.1277E-002  
  470.50  2.0882E-002  
  471.00  2.0557E-002  
  471.50  2.0260E-002  
  472.00  1.9904E-002  
  472.50  1.9506E-002  
  473.00  1.9076E-002  
  473.50  1.8690E-002  
  474.00  1.8352E-002  
  474.50  1.8022E-002  
  475.00  1.7669E-002  
  475.50  1.7329E-002  
  476.00  1.6969E-002  
  476.50  1.6700E-002  
  477.00  1.6412E-002  
  477.50  1.6120E-002  
  478.00  1.5795E-002  
  478.50  1.5541E-002  
  479.00  1.5370E-002  
  479.50  1.5209E-002  
  480.00  1.5012E-002  
  480.50  1.4810E-002  
  481.00  1.4627E-002  
  481.50  1.4519E-002  
  482.00  1.4421E-002  
  482.50  1.4330E-002  
  483.00  1.4233E-002  
  483.50  1.4162E-002  
  484.00  1.4086E-002  
  484.50  1.4024E-002  
  485.00  1.3955E-002  
  485.50  1.3890E-002  
  486.00  1.3853E-002  
  486.50  1.3872E-002  
  487.00  1.3899E-002  
  487.50  1.3907E-002  
  488.00  1.3916E-002  
  488.50  1.3926E-002  
  489.00  1.4037E-002  
  489.50  1.4170E-002  
  490.00  1.4313E-002  
  490.50  1.4424E-002  
  491.00  1.4510E-002  
  491.50  1.4610E-002  
  492.00  1.4745E-002  
  492.50  1.4894E-002  
  493.00  1.5090E-002  
  493.50  1.5271E-002  
  494.00  1.5449E-002  
  494.50  1.5624E-002  
  495.00  1.5826E-002  
  495.50  1.6087E-002  
  496.00  1.6362E-002  
  496.50  1.6655E-002  
  497.00  1.6953E-002  
  497.50  1.7268E-002  
  498.00  1.7585E-002  
  498.50  1.7908E-002  
  499.00  1.8271E-002  
  499.50  1.8652E-002  
  500.00  1.9105E-002  
  500.50  1.9522E-002  
  501.00  1.9932E-002  
  501.50  2.0359E-002  
  502.00  2.0814E-002  
  502.50  2.1346E-002  
  503.00  2.1900E-002  
  503.50  2.2460E-002  
  504.00  2.3061E-002  
  504.50  2.3572E-002  
  505.00  2.4039E-002  
  505.50  2.4459E-002  
  506.00  2.4997E-002  
  506.50  2.5584E-002  
  507.00  2.6211E-002  
  507.50  2.6782E-002  
  508.00  2.7352E-002  
  508.50  2.7941E-002  
  509.00  2.8536E-002  
  509.50  2.9138E-002  
  510.00  2.9740E-002  
  510.50  3.0337E-002  
  511.00  3.0941E-002  
  511.50  3.1505E-002  
  512.00  3.2113E-002  
  512.50  3.2751E-002  
  513.00  3.3469E-002  
  513.50  3.4162E-002  
  514.00  3.4805E-002  
  514.50  3.5422E-002  
  515.00  3.5977E-002  
  515.50  3.6568E-002  
  516.00  3.7137E-002  
  516.50  3.7761E-002  
  517.00  3.8371E-002  
  517.50  3.9042E-002  
  518.00  3.9689E-002  
  518.50  4.0365E-002  
  519.00  4.1082E-002  
  519.50  4.1693E-002  
  520.00  4.2249E-002  
  520.50  4.2742E-002  
  521.00  4.3249E-002  
  521.50  4.3940E-002  
  522.00  4.4626E-002  
  522.50  4.5310E-002  
  523.00  4.5852E-002  
  523.50  4.6387E-002  
  524.00  4.6937E-002  
  524.50  4.7589E-002  
  525.00  4.8142E-002  
  525.50  4.8688E-002  
  526.00  4.9176E-002  
  526.50  4.9762E-002  
  527.00  5.0388E-002  
  527.50  5.1027E-002  
  528.00  5.1621E-002  
  528.50  5.2134E-002  
  529.00  5.2656E-002  
  529.50  5.3179E-002  
  530.00  5.3709E-002  
  530.50  5.4243E-002  
  531.00  5.4740E-002  
  531.50  5.5297E-002  
  532.00  5.5802E-002  
  532.50  5.6337E-002  
  533.00  5.6861E-002  
  533.50  5.7434E-002  
  534.00  5.7926E-002  
  534.50  5.8425E-002  
  535.00  5.8867E-002  
  535.50  5.9316E-002  
  536.00  5.9734E-002  
  536.50  6.0124E-002  
  537.00  6.0583E-002  
  537.50  6.1099E-002  
  538.00  6.1654E-002  
  538.50  6.2119E-002  
  539.00  6.2551E-002  
  539.50  6.2995E-002  
  540.00  6.3486E-002  
  540.50  6.4036E-002  
  541.00  6.4501E-002  
  541.50  6.4907E-002  
  542.00  6.5366E-002  
  542.50  6.5878E-002  
  543.00  6.6442E-002  
  543.50  6.6933E-002  
  544.00  6.7336E-002  
  544.50  6.7673E-002  
  545.00  6.8074E-002  
  545.50  6.8485E-002  
  546.00  6.8897E-002  
  546.50  6.9400E-002  
  547.00  6.9790E-002  
  547.50  7.0232E-002  
  548.00  7.0639E-002  
  548.50  7.1141E-002  
  549.00  7.1684E-002  
  549.50  7.2150E-002  
  550.00  7.2455E-002  
  550.50  7.2764E-002  
  551.00  7.3257E-002  
  551.50  7.3869E-002  
  552.00  7.4472E-002  
  552.50  7.4986E-002  
  553.00  7.5456E-002  
  553.50  7.5891E-002  
  554.00  7.6307E-002  
  554.50  7.6716E-002  
  555.00  7.7162E-002  
  555.50  7.7782E-002  
  556.00  7.8333E-002  
  556.50  7.8805E-002  
  557.00  7.9173E-002  
  557.50  7.9598E-002  
  558.00  8.0097E-002  
  558.50  8.0662E-002  
  559.00  8.1195E-002  
  559.50  8.1691E-002  
  560.00  8.2165E-002  
  560.50  8.2700E-002  
  561.00  8.3180E-002  
  561.50  8.3648E-002  
  562.00  8.4047E-002  
  562.50  8.4467E-002  
  563.00  8.4881E-002  
  563.50  8.5332E-002  
  564.00  8.5760E-002  
  564.50  8.6103E-002  
  565.00  8.6426E-002  
  565.50  8.6856E-002  
  566.00  8.7387E-002  
  566.50  8.7956E-002  
  567.00  8.8336E-002  
  567.50  8.8682E-002  
  568.00  8.9019E-002  
  568.50  8.9392E-002  
  569.00  8.9812E-002  
  569.50  9.0394E-002  
  570.00  9.0958E-002  
  570.50  9.1482E-002  
  571.00  9.1835E-002  
  571.50  9.2208E-002  
  572.00  9.2585E-002  
  572.50  9.3064E-002  
  573.00  9.3423E-002  
  573.50  9.3757E-002  
  574.00  9.4120E-002  
  574.50  9.4487E-002  
  575.00  9.5039E-002  
  575.50  9.5496E-002  
  576.00  9.5950E-002  
  576.50  9.6281E-002  
  577.00  9.6647E-002  
  577.50  9.7132E-002  
  578.00  9.7646E-002  
  578.50  9.8194E-002  
  579.00  9.8595E-002  
  579.50  9.8897E-002  
  580.00  9.9093E-002  
  580.50  9.9333E-002  
  581.00  9.9621E-002  
  581.50  1.0002E-001  
  582.00  1.0048E-001  
  582.50  1.0085E-001  
  583.00  1.0116E-001  
  583.50  1.0146E-001  
  584.00  1.0187E-001  
  584.50  1.0222E-001  
  585.00  1.0233E-001  
  585.50  1.0247E-001  
  586.00  1.0273E-001  
  586.50  1.0316E-001  
  587.00  1.0354E-001  
  587.50  1.0372E-001  
  588.00  1.0392E-001  
  588.50  1.0414E-001  
  589.00  1.0452E-001  
  589.50  1.0483E-001  
  590.00  1.0506E-001  
  590.50  1.0523E-001  
  591.00  1.0538E-001  
  591.50  1.0567E-001  
  592.00  1.0588E-001  
  592.50  1.0617E-001  
  593.00  1.0629E-001  
  593.50  1.0622E-001  
  594.00  1.0632E-001  
  594.50  1.0643E-001  
  595.00  1.0669E-001  
  595.50  1.0667E-001  
  596.00  1.0660E-001  
  596.50  1.0656E-001  
  597.00  1.0670E-001  
  597.50  1.0681E-001  
  598.00  1.0686E-001  
  598.50  1.0679E-001  
  599.00  1.0677E-001  
  599.50  1.0684E-001  
  600.00  1.0687E-001  
  600.50  1.0693E-001  
  601.00  1.0690E-001  
  601.50  1.0683E-001  
  602.00  1.0678E-001  
  602.50  1.0672E-001  
  603.00  1.0662E-001  
  603.50  1.0652E-001  
  604.00  1.0640E-001  
  604.50  1.0629E-001  
  605.00  1.0611E-001  
  605.50  1.0592E-001  
  606.00  1.0575E-001  
  606.50  1.0572E-001  
  607.00  1.0557E-001  
  607.50  1.0533E-001  
  608.00  1.0506E-001  
  608.50  1.0480E-001  
  609.00  1.0472E-001  
  609.50  1.0456E-001  
  610.00  1.0433E-001  
  610.50  1.0399E-001  
  611.00  1.0368E-001  
  611.50  1.0339E-001  
  612.00  1.0327E-001  
  612.50  1.0312E-001  
  613.00  1.0288E-001  
  613.50  1.0249E-001  
  614.00  1.0205E-001  
  614.50  1.0172E-001  
  615.00  1.0146E-001  
  615.50  1.0121E-001  
  616.00  1.0100E-001  
  616.50  1.0072E-001  
  617.00  1.0033E-001  
  617.50  9.9893E-002  
  618.00  9.9568E-002  
  618.50  9.9215E-002  
  619.00  9.8757E-002  
  619.50  9.8184E-002  
  620.00  9.7695E-002  
  620.50  9.7239E-002  
  621.00  9.6800E-002  
  621.50  9.6399E-002  
  622.00  9.6120E-002  
  622.50  9.5790E-002  
  623.00  9.5367E-002  
  623.50  9.4914E-002  
  624.00  9.4413E-002  
  624.50  9.3887E-002  
  625.00  9.3365E-002  
  625.50  9.2943E-002  
  626.00  9.2570E-002  
  626.50  9.2000E-002  
  627.00  9.1416E-002  
  627.50  9.0886E-002  
  628.00  9.0391E-002  
  628.50  8.9801E-002  
  629.00  8.9210E-002  
  629.50  8.8562E-002  
  630.00  8.7957E-002  
  630.50  8.7405E-002  
  631.00  8.7016E-002  
  631.50  8.6622E-002  
  632.00  8.6076E-002  
  632.50  8.5426E-002  
  633.00  8.4782E-002  
  633.50  8.4245E-002  
  634.00  8.3773E-002  
  634.50  8.3282E-002  
  635.00  8.2751E-002  
  635.50  8.2206E-002  
  636.00  8.1654E-002  
  636.50  8.0972E-002  
  637.00  8.0240E-002  
  637.50  7.9637E-002  
  638.00  7.9150E-002  
  638.50  7.8579E-002  
  639.00  7.8018E-002  
  639.50  7.7448E-002  
  640.00  7.6895E-002  
  640.50  7.6175E-002  
  641.00  7.5365E-002  
  641.50  7.4739E-002  
  642.00  7.4228E-002  
  642.50  7.3742E-002  
  643.00  7.3101E-002  
  643.50  7.2372E-002  
  644.00  7.1666E-002  
  644.50  7.1011E-002  
  645.00  7.0412E-002  
  645.50  6.9978E-002  
  646.00  6.9572E-002  
  646.50  6.9075E-002  
  647.00  6.8579E-002  
  647.50  6.8005E-002  
  648.00  6.7405E-002  
  648.50  6.6572E-002  
  649.00  6.5805E-002  
  649.50  6.5056E-002  
  650.00  6.4386E-002  
  650.50  6.3702E-002  
  651.00  6.3089E-002  
  651.50  6.2387E-002  
  652.00  6.1754E-002  
  652.50  6.1217E-002  
  653.00  6.0800E-002  
  653.50  6.0268E-002  
  654.00  5.9587E-002  
  654.50  5.8828E-002  
  655.00  5.8185E-002  
  655.50  5.7633E-002  
  656.00  5.7117E-002  
  656.50  5.6615E-002  
  657.00  5.6080E-002  
  657.50  5.5492E-002  
  658.00  5.4816E-002  
  658.50  5.4206E-002  
  659.00  5.3684E-002  
  659.50  5.3252E-002  
  660.00  5.2696E-002  
  660.50  5.2065E-002  
  661.00  5.1305E-002  
  661.50  5.0681E-002  
  662.00  5.0219E-002  
  662.50  4.9800E-002  
  663.00  4.9224E-002  
  663.50  4.8599E-002  
  664.00  4.8025E-002  
  664.50  4.7509E-002  
  665.00  4.6905E-002  
  665.50  4.6229E-002  
  666.00  4.5579E-002  
  666.50  4.5087E-002  
  667.00  4.4664E-002  
  667.50  4.4301E-002  
  668.00  4.3816E-002  
  668.50  4.3301E-002  
  669.00  4.2777E-002  
  669.50  4.2211E-002  
  670.00  4.1563E-002  
  670.50  4.0939E-002  
  671.00  4.0436E-002  
  671.50  3.9987E-002  
  672.00  3.9490E-002  
  672.50  3.8967E-002  
  673.00  3.8450E-002  
  673.50  3.8058E-002  
  674.00  3.7608E-002  
  674.50  3.7208E-002  
  675.00  3.6699E-002  
  675.50  3.6303E-002  
  676.00  3.5868E-002  
  676.50  3.5373E-002  
  677.00  3.4876E-002  
  677.50  3.4471E-002  
  678.00  3.4102E-002  
  678.50  3.3711E-002  
  679.00  3.3186E-002  
  679.50  3.2711E-002  
  680.00  3.2207E-002  
