
# From lspdd.org
# 
# Name: LFC GE Twister Domestique
# Indice spectral Valeur 
# MSI 0.21 
# SLI 0.41 
# IPI 0.53 
# Pourcentage de bleu 10.6 
# Caractéristique Valeur 
# CCT calculée (K) 2621 
# CCT du fabricant (K) ND 
# Tension (V) 120 
# Puissance (W) 13.0 
# Efficacité lumineuse (Lum/W) ND 
#
# Image: '/app/system/img_1s/2618/medium_image1.JPG?1413486711'
# 

  273.00  0.0000E+000  
  273.50  0.0000E+000  
  274.00  0.0000E+000  
  274.50  0.0000E+000  
  275.00  0.0000E+000  
  275.50  0.0000E+000  
  276.00  0.0000E+000  
  276.50  0.0000E+000  
  277.00  0.0000E+000  
  277.50  0.0000E+000  
  278.00  0.0000E+000  
  278.50  0.0000E+000  
  279.00  0.0000E+000  
  279.50  0.0000E+000  
  280.00  0.0000E+000  
  280.50  0.0000E+000  
  281.00  0.0000E+000  
  281.50  0.0000E+000  
  282.00  0.0000E+000  
  282.50  0.0000E+000  
  283.00  0.0000E+000  
  283.50  0.0000E+000  
  284.00  0.0000E+000  
  284.50  0.0000E+000  
  285.00  0.0000E+000  
  285.50  0.0000E+000  
  286.00  0.0000E+000  
  286.50  0.0000E+000  
  287.00  0.0000E+000  
  287.50  0.0000E+000  
  288.00  0.0000E+000  
  288.50  0.0000E+000  
  289.00  0.0000E+000  
  289.50  0.0000E+000  
  290.00  0.0000E+000  
  290.50  0.0000E+000  
  291.00  0.0000E+000  
  291.50  0.0000E+000  
  292.00  0.0000E+000  
  292.50  0.0000E+000  
  293.00  0.0000E+000  
  293.50  0.0000E+000  
  294.00  0.0000E+000  
  294.50  0.0000E+000  
  295.00  0.0000E+000  
  295.50  0.0000E+000  
  296.00  0.0000E+000  
  296.50  0.0000E+000  
  297.00  0.0000E+000  
  297.50  0.0000E+000  
  298.00  0.0000E+000  
  298.50  0.0000E+000  
  299.00  0.0000E+000  
  299.50  0.0000E+000  
  300.00  0.0000E+000  
  300.50  0.0000E+000  
  301.00  0.0000E+000  
  301.50  0.0000E+000  
  302.00  0.0000E+000  
  302.50  0.0000E+000  
  303.00  0.0000E+000  
  303.50  0.0000E+000  
  304.00  0.0000E+000  
  304.50  0.0000E+000  
  305.00  0.0000E+000  
  305.50  0.0000E+000  
  306.00  1.3144E-007  
  306.50  2.4376E-005  
  307.00  4.2832E-005  
  307.50  1.1003E-005  
  308.00  0.0000E+000  
  308.50  0.0000E+000  
  309.00  0.0000E+000  
  309.50  0.0000E+000  
  310.00  0.0000E+000  
  310.50  0.0000E+000  
  311.00  0.0000E+000  
  311.50  0.0000E+000  
  312.00  0.0000E+000  
  312.50  0.0000E+000  
  313.00  0.0000E+000  
  313.50  0.0000E+000  
  314.00  0.0000E+000  
  314.50  0.0000E+000  
  315.00  0.0000E+000  
  315.50  0.0000E+000  
  316.00  0.0000E+000  
  316.50  0.0000E+000  
  317.00  0.0000E+000  
  317.50  0.0000E+000  
  318.00  0.0000E+000  
  318.50  0.0000E+000  
  319.00  0.0000E+000  
  319.50  2.4158E-006  
  320.00  1.8020E-006  
  320.50  0.0000E+000  
  321.00  0.0000E+000  
  321.50  0.0000E+000  
  322.00  0.0000E+000  
  322.50  0.0000E+000  
  323.00  1.1367E-005  
  323.50  3.4351E-005  
  324.00  2.4410E-005  
  324.50  1.1215E-005  
  325.00  0.0000E+000  
  325.50  0.0000E+000  
  326.00  0.0000E+000  
  326.50  0.0000E+000  
  327.00  9.2885E-006  
  327.50  3.6577E-005  
  328.00  5.1587E-006  
  328.50  0.0000E+000  
  329.00  0.0000E+000  
  329.50  0.0000E+000  
  330.00  0.0000E+000  
  330.50  0.0000E+000  
  331.00  0.0000E+000  
  331.50  0.0000E+000  
  332.00  0.0000E+000  
  332.50  0.0000E+000  
  333.00  1.1362E-006  
  333.50  4.9411E-005  
  334.00  9.6036E-005  
  334.50  8.5362E-005  
  335.00  2.2763E-005  
  335.50  0.0000E+000  
  336.00  0.0000E+000  
  336.50  0.0000E+000  
  337.00  0.0000E+000  
  337.50  0.0000E+000  
  338.00  3.7308E-005  
  338.50  3.8344E-005  
  339.00  3.8069E-006  
  339.50  0.0000E+000  
  340.00  0.0000E+000  
  340.50  0.0000E+000  
  341.00  0.0000E+000  
  341.50  0.0000E+000  
  342.00  0.0000E+000  
  342.50  0.0000E+000  
  343.00  0.0000E+000  
  343.50  0.0000E+000  
  344.00  0.0000E+000  
  344.50  0.0000E+000  
  345.00  0.0000E+000  
  345.50  0.0000E+000  
  346.00  0.0000E+000  
  346.50  0.0000E+000  
  347.00  0.0000E+000  
  347.50  0.0000E+000  
  348.00  0.0000E+000  
  348.50  0.0000E+000  
  349.00  0.0000E+000  
  349.50  0.0000E+000  
  350.00  7.5608E-006  
  350.50  3.6639E-005  
  351.00  4.8478E-005  
  351.50  4.6677E-005  
  352.00  1.0958E-005  
  352.50  0.0000E+000  
  353.00  0.0000E+000  
  353.50  0.0000E+000  
  354.00  0.0000E+000  
  354.50  0.0000E+000  
  355.00  0.0000E+000  
  355.50  0.0000E+000  
  356.00  0.0000E+000  
  356.50  9.2018E-006  
  357.00  0.0000E+000  
  357.50  1.9601E-006  
  358.00  6.8062E-006  
  358.50  0.0000E+000  
  359.00  0.0000E+000  
  359.50  0.0000E+000  
  360.00  0.0000E+000  
  360.50  0.0000E+000  
  361.00  7.4110E-006  
  361.50  3.4613E-005  
  362.00  1.1500E-005  
  362.50  0.0000E+000  
  363.00  1.2047E-005  
  363.50  6.1241E-005  
  364.00  2.1759E-004  
  364.50  3.8239E-004  
  365.00  4.8647E-004  
  365.50  4.8627E-004  
  366.00  4.2051E-004  
  366.50  3.1087E-004  
  367.00  1.6036E-004  
  367.50  3.4301E-005  
  368.00  0.0000E+000  
  368.50  0.0000E+000  
  369.00  0.0000E+000  
  369.50  0.0000E+000  
  370.00  0.0000E+000  
  370.50  0.0000E+000  
  371.00  0.0000E+000  
  371.50  0.0000E+000  
  372.00  0.0000E+000  
  372.50  0.0000E+000  
  373.00  0.0000E+000  
  373.50  0.0000E+000  
  374.00  0.0000E+000  
  374.50  0.0000E+000  
  375.00  0.0000E+000  
  375.50  0.0000E+000  
  376.00  0.0000E+000  
  376.50  0.0000E+000  
  377.00  0.0000E+000  
  377.50  0.0000E+000  
  378.00  0.0000E+000  
  378.50  0.0000E+000  
  379.00  0.0000E+000  
  379.50  0.0000E+000  
  380.00  0.0000E+000  
  380.50  0.0000E+000  
  381.00  0.0000E+000  
  381.50  0.0000E+000  
  382.00  0.0000E+000  
  382.50  2.0067E-006  
  383.00  3.7805E-005  
  383.50  7.8189E-005  
  384.00  5.8121E-005  
  384.50  3.1805E-005  
  385.00  4.1982E-007  
  385.50  0.0000E+000  
  386.00  0.0000E+000  
  386.50  0.0000E+000  
  387.00  0.0000E+000  
  387.50  0.0000E+000  
  388.00  0.0000E+000  
  388.50  0.0000E+000  
  389.00  0.0000E+000  
  389.50  0.0000E+000  
  390.00  0.0000E+000  
  390.50  0.0000E+000  
  391.00  0.0000E+000  
  391.50  0.0000E+000  
  392.00  0.0000E+000  
  392.50  0.0000E+000  
  393.00  0.0000E+000  
  393.50  0.0000E+000  
  394.00  4.6397E-006  
  394.50  7.8833E-008  
  395.00  3.7695E-005  
  395.50  6.2723E-005  
  396.00  2.4347E-005  
  396.50  3.8197E-005  
  397.00  4.7124E-006  
  397.50  0.0000E+000  
  398.00  0.0000E+000  
  398.50  0.0000E+000  
  399.00  0.0000E+000  
  399.50  0.0000E+000  
  400.00  0.0000E+000  
  400.50  0.0000E+000  
  401.00  0.0000E+000  
  401.50  0.0000E+000  
  402.00  0.0000E+000  
  402.50  1.4136E-006  
  403.00  1.0660E-004  
  403.50  3.8008E-004  
  404.00  5.9839E-004  
  404.50  7.1842E-004  
  405.00  6.3644E-004  
  405.50  3.9586E-004  
  406.00  1.6359E-004  
  406.50  5.5124E-005  
  407.00  2.2818E-005  
  407.50  3.7167E-005  
  408.00  5.6257E-005  
  408.50  2.9004E-005  
  409.00  0.0000E+000  
  409.50  0.0000E+000  
  410.00  0.0000E+000  
  410.50  0.0000E+000  
  411.00  0.0000E+000  
  411.50  0.0000E+000  
  412.00  0.0000E+000  
  412.50  0.0000E+000  
  413.00  0.0000E+000  
  413.50  0.0000E+000  
  414.00  0.0000E+000  
  414.50  0.0000E+000  
  415.00  0.0000E+000  
  415.50  0.0000E+000  
  416.00  0.0000E+000  
  416.50  0.0000E+000  
  417.00  0.0000E+000  
  417.50  0.0000E+000  
  418.00  0.0000E+000  
  418.50  0.0000E+000  
  419.00  0.0000E+000  
  419.50  0.0000E+000  
  420.00  0.0000E+000  
  420.50  0.0000E+000  
  421.00  0.0000E+000  
  421.50  0.0000E+000  
  422.00  0.0000E+000  
  422.50  0.0000E+000  
  423.00  0.0000E+000  
  423.50  0.0000E+000  
  424.00  0.0000E+000  
  424.50  0.0000E+000  
  425.00  0.0000E+000  
  425.50  0.0000E+000  
  426.00  0.0000E+000  
  426.50  0.0000E+000  
  427.00  0.0000E+000  
  427.50  0.0000E+000  
  428.00  0.0000E+000  
  428.50  0.0000E+000  
  429.00  0.0000E+000  
  429.50  0.0000E+000  
  430.00  0.0000E+000  
  430.50  0.0000E+000  
  431.00  4.4015E-006  
  431.50  3.3892E-005  
  432.00  2.4148E-006  
  432.50  0.0000E+000  
  433.00  0.0000E+000  
  433.50  5.9599E-006  
  434.00  2.2521E-004  
  434.50  8.5846E-004  
  435.00  1.6741E-003  
  435.50  2.2720E-003  
  436.00  2.2266E-003  
  436.50  1.6355E-003  
  437.00  8.4924E-004  
  437.50  2.8351E-004  
  438.00  4.2210E-005  
  438.50  0.0000E+000  
  439.00  0.0000E+000  
  439.50  0.0000E+000  
  440.00  0.0000E+000  
  440.50  0.0000E+000  
  441.00  0.0000E+000  
  441.50  0.0000E+000  
  442.00  0.0000E+000  
  442.50  0.0000E+000  
  443.00  0.0000E+000  
  443.50  0.0000E+000  
  444.00  0.0000E+000  
  444.50  0.0000E+000  
  445.00  0.0000E+000  
  445.50  0.0000E+000  
  446.00  0.0000E+000  
  446.50  0.0000E+000  
  447.00  0.0000E+000  
  447.50  0.0000E+000  
  448.00  0.0000E+000  
  448.50  0.0000E+000  
  449.00  0.0000E+000  
  449.50  0.0000E+000  
  450.00  0.0000E+000  
  450.50  0.0000E+000  
  451.00  0.0000E+000  
  451.50  0.0000E+000  
  452.00  0.0000E+000  
  452.50  0.0000E+000  
  453.00  0.0000E+000  
  453.50  0.0000E+000  
  454.00  0.0000E+000  
  454.50  0.0000E+000  
  455.00  0.0000E+000  
  455.50  0.0000E+000  
  456.00  0.0000E+000  
  456.50  0.0000E+000  
  457.00  0.0000E+000  
  457.50  0.0000E+000  
  458.00  0.0000E+000  
  458.50  0.0000E+000  
  459.00  0.0000E+000  
  459.50  0.0000E+000  
  460.00  0.0000E+000  
  460.50  0.0000E+000  
  461.00  0.0000E+000  
  461.50  1.0473E-005  
  462.00  2.1757E-005  
  462.50  1.0479E-006  
  463.00  0.0000E+000  
  463.50  0.0000E+000  
  464.00  0.0000E+000  
  464.50  0.0000E+000  
  465.00  0.0000E+000  
  465.50  0.0000E+000  
  466.00  0.0000E+000  
  466.50  0.0000E+000  
  467.00  0.0000E+000  
  467.50  0.0000E+000  
  468.00  0.0000E+000  
  468.50  0.0000E+000  
  469.00  0.0000E+000  
  469.50  0.0000E+000  
  470.00  0.0000E+000  
  470.50  0.0000E+000  
  471.00  0.0000E+000  
  471.50  0.0000E+000  
  472.00  0.0000E+000  
  472.50  0.0000E+000  
  473.00  0.0000E+000  
  473.50  0.0000E+000  
  474.00  0.0000E+000  
  474.50  0.0000E+000  
  475.00  0.0000E+000  
  475.50  0.0000E+000  
  476.00  0.0000E+000  
  476.50  0.0000E+000  
  477.00  0.0000E+000  
  477.50  0.0000E+000  
  478.00  0.0000E+000  
  478.50  0.0000E+000  
  479.00  0.0000E+000  
  479.50  0.0000E+000  
  480.00  0.0000E+000  
  480.50  1.6643E-005  
  481.00  5.8891E-005  
  481.50  6.6223E-005  
  482.00  9.0216E-005  
  482.50  1.0570E-004  
  483.00  1.1971E-004  
  483.50  1.2695E-004  
  484.00  1.7997E-004  
  484.50  2.6946E-004  
  485.00  3.6175E-004  
  485.50  3.9776E-004  
  486.00  4.2423E-004  
  486.50  4.4649E-004  
  487.00  4.5609E-004  
  487.50  4.3929E-004  
  488.00  4.1595E-004  
  488.50  3.8120E-004  
  489.00  3.5233E-004  
  489.50  3.0604E-004  
  490.00  2.8776E-004  
  490.50  2.8318E-004  
  491.00  2.6385E-004  
  491.50  2.4134E-004  
  492.00  2.1434E-004  
  492.50  2.1086E-004  
  493.00  2.0300E-004  
  493.50  1.9682E-004  
  494.00  2.0499E-004  
  494.50  2.2157E-004  
  495.00  2.3543E-004  
  495.50  2.3778E-004  
  496.00  2.0696E-004  
  496.50  1.6476E-004  
  497.00  1.1038E-004  
  497.50  4.7947E-005  
  498.00  5.6755E-005  
  498.50  7.4078E-005  
  499.00  9.0831E-005  
  499.50  9.0372E-005  
  500.00  6.6082E-005  
  500.50  5.8139E-005  
  501.00  3.1280E-005  
  501.50  7.3250E-006  
  502.00  0.0000E+000  
  502.50  5.5795E-007  
  503.00  1.7271E-005  
  503.50  4.3015E-005  
  504.00  4.2410E-005  
  504.50  3.1379E-005  
  505.00  8.1494E-006  
  505.50  0.0000E+000  
  506.00  0.0000E+000  
  506.50  0.0000E+000  
  507.00  0.0000E+000  
  507.50  0.0000E+000  
  508.00  0.0000E+000  
  508.50  0.0000E+000  
  509.00  0.0000E+000  
  509.50  0.0000E+000  
  510.00  0.0000E+000  
  510.50  1.2051E-007  
  511.00  9.9259E-006  
  511.50  1.1795E-005  
  512.00  2.5545E-005  
  512.50  2.2774E-005  
  513.00  1.2401E-005  
  513.50  4.1493E-006  
  514.00  0.0000E+000  
  514.50  0.0000E+000  
  515.00  0.0000E+000  
  515.50  0.0000E+000  
  516.00  0.0000E+000  
  516.50  0.0000E+000  
  517.00  0.0000E+000  
  517.50  0.0000E+000  
  518.00  0.0000E+000  
  518.50  0.0000E+000  
  519.00  0.0000E+000  
  519.50  0.0000E+000  
  520.00  6.5086E-006  
  520.50  1.8157E-005  
  521.00  1.1844E-005  
  521.50  7.4722E-007  
  522.00  0.0000E+000  
  522.50  0.0000E+000  
  523.00  0.0000E+000  
  523.50  0.0000E+000  
  524.00  0.0000E+000  
  524.50  0.0000E+000  
  525.00  0.0000E+000  
  525.50  0.0000E+000  
  526.00  0.0000E+000  
  526.50  0.0000E+000  
  527.00  0.0000E+000  
  527.50  0.0000E+000  
  528.00  0.0000E+000  
  528.50  0.0000E+000  
  529.00  0.0000E+000  
  529.50  0.0000E+000  
  530.00  1.1032E-005  
  530.50  3.1485E-005  
  531.00  3.5430E-005  
  531.50  2.4772E-005  
  532.00  9.4881E-006  
  532.50  1.8738E-005  
  533.00  4.3129E-005  
  533.50  6.7484E-005  
  534.00  9.0270E-005  
  534.50  9.4128E-005  
  535.00  8.8098E-005  
  535.50  1.0312E-004  
  536.00  1.2656E-004  
  536.50  1.8539E-004  
  537.00  2.6331E-004  
  537.50  3.2458E-004  
  538.00  3.9118E-004  
  538.50  4.6823E-004  
  539.00  5.9742E-004  
  539.50  8.4490E-004  
  540.00  1.2125E-003  
  540.50  1.6933E-003  
  541.00  2.1496E-003  
  541.50  2.4547E-003  
  542.00  2.5036E-003  
  542.50  2.3704E-003  
  543.00  2.1826E-003  
  543.50  2.0441E-003  
  544.00  2.0846E-003  
  544.50  2.3558E-003  
  545.00  2.9426E-003  
  545.50  3.4996E-003  
  546.00  3.6593E-003  
  546.50  3.2867E-003  
  547.00  2.5975E-003  
  547.50  1.9666E-003  
  548.00  1.5424E-003  
  548.50  1.2797E-003  
  549.00  1.0786E-003  
  549.50  9.5169E-004  
  550.00  8.5363E-004  
  550.50  7.6760E-004  
  551.00  6.8233E-004  
  551.50  6.0796E-004  
  552.00  5.3029E-004  
  552.50  4.4145E-004  
  553.00  3.5293E-004  
  553.50  3.1420E-004  
  554.00  2.8774E-004  
  554.50  2.5963E-004  
  555.00  1.8183E-004  
  555.50  1.4075E-004  
  556.00  9.5962E-005  
  556.50  1.0288E-004  
  557.00  6.8929E-005  
  557.50  4.1229E-005  
  558.00  2.7750E-005  
  558.50  2.8345E-005  
  559.00  6.1277E-005  
  559.50  8.9303E-005  
  560.00  8.8773E-005  
  560.50  8.2626E-005  
  561.00  3.6859E-005  
  561.50  2.5435E-005  
  562.00  3.6271E-005  
  562.50  5.0253E-005  
  563.00  7.6247E-005  
  563.50  6.2597E-005  
  564.00  6.4054E-005  
  564.50  1.6421E-005  
  565.00  7.6835E-006  
  565.50  1.2223E-005  
  566.00  4.8244E-005  
  566.50  6.8495E-005  
  567.00  7.8751E-005  
  567.50  7.1867E-005  
  568.00  5.8993E-005  
  568.50  4.7762E-005  
  569.00  4.4201E-005  
  569.50  6.9053E-005  
  570.00  5.9465E-005  
  570.50  3.2698E-005  
  571.00  3.5601E-005  
  571.50  4.8336E-005  
  572.00  6.8352E-005  
  572.50  5.3642E-005  
  573.00  2.7195E-005  
  573.50  0.0000E+000  
  574.00  0.0000E+000  
  574.50  0.0000E+000  
  575.00  0.0000E+000  
  575.50  4.0304E-005  
  576.00  2.0278E-004  
  576.50  3.4790E-004  
  577.00  4.1969E-004  
  577.50  3.9760E-004  
  578.00  4.0809E-004  
  578.50  4.7662E-004  
  579.00  5.6690E-004  
  579.50  5.6201E-004  
  580.00  5.1579E-004  
  580.50  4.5016E-004  
  581.00  4.1960E-004  
  581.50  4.1816E-004  
  582.00  4.5100E-004  
  582.50  5.0392E-004  
  583.00  5.4979E-004  
  583.50  5.8702E-004  
  584.00  5.7528E-004  
  584.50  5.4487E-004  
  585.00  5.2749E-004  
  585.50  5.4527E-004  
  586.00  6.0763E-004  
  586.50  6.9955E-004  
  587.00  7.9476E-004  
  587.50  8.1316E-004  
  588.00  7.1922E-004  
  588.50  5.5105E-004  
  589.00  4.0621E-004  
  589.50  3.4507E-004  
  590.00  2.9458E-004  
  590.50  3.0343E-004  
  591.00  3.2675E-004  
  591.50  4.3559E-004  
  592.00  5.9146E-004  
  592.50  7.6096E-004  
  593.00  8.1018E-004  
  593.50  7.3397E-004  
  594.00  5.7305E-004  
  594.50  4.3893E-004  
  595.00  3.4620E-004  
  595.50  2.6463E-004  
  596.00  2.2090E-004  
  596.50  1.9603E-004  
  597.00  2.2204E-004  
  597.50  2.9168E-004  
  598.00  3.6121E-004  
  598.50  4.1692E-004  
  599.00  4.3528E-004  
  599.50  4.4456E-004  
  600.00  4.2377E-004  
  600.50  3.6356E-004  
  601.00  2.9790E-004  
  601.50  2.2219E-004  
  602.00  1.5357E-004  
  602.50  1.0337E-004  
  603.00  9.1407E-005  
  603.50  1.1284E-004  
  604.00  1.3762E-004  
  604.50  1.6905E-004  
  605.00  1.7760E-004  
  605.50  1.8650E-004  
  606.00  1.9477E-004  
  606.50  2.2047E-004  
  607.00  2.7180E-004  
  607.50  3.5341E-004  
  608.00  4.7960E-004  
  608.50  7.0013E-004  
  609.00  1.0747E-003  
  609.50  1.9293E-003  
  610.00  3.4600E-003  
  610.50  5.4847E-003  
  611.00  7.1000E-003  
  611.50  7.4701E-003  
  612.00  6.4704E-003  
  612.50  4.9508E-003  
  613.00  3.7004E-003  
  613.50  2.9399E-003  
  614.00  2.5083E-003  
  614.50  2.1808E-003  
  615.00  1.8260E-003  
  615.50  1.4374E-003  
  616.00  1.1040E-003  
  616.50  8.3411E-004  
  617.00  6.5785E-004  
  617.50  5.4447E-004  
  618.00  4.6393E-004  
  618.50  4.2164E-004  
  619.00  3.8683E-004  
  619.50  3.9051E-004  
  620.00  4.2218E-004  
  620.50  4.5948E-004  
  621.00  4.6734E-004  
  621.50  4.5408E-004  
  622.00  4.5464E-004  
  622.50  4.9691E-004  
  623.00  5.8885E-004  
  623.50  6.3352E-004  
  624.00  6.6815E-004  
  624.50  6.2261E-004  
  625.00  6.1793E-004  
  625.50  6.1563E-004  
  626.00  6.2934E-004  
  626.50  6.1350E-004  
  627.00  5.6478E-004  
  627.50  5.3273E-004  
  628.00  4.7733E-004  
  628.50  4.5379E-004  
  629.00  4.8397E-004  
  629.50  6.1046E-004  
  630.00  7.9984E-004  
  630.50  9.6919E-004  
  631.00  1.0497E-003  
  631.50  9.3984E-004  
  632.00  7.0930E-004  
  632.50  4.5191E-004  
  633.00  2.6682E-004  
  633.50  1.9004E-004  
  634.00  1.5710E-004  
  634.50  1.4976E-004  
  635.00  1.3796E-004  
  635.50  1.2267E-004  
  636.00  1.0429E-004  
  636.50  8.2097E-005  
  637.00  7.2403E-005  
  637.50  4.9559E-005  
  638.00  2.5831E-005  
  638.50  1.2454E-005  
  639.00  2.5463E-007  
  639.50  1.3430E-005  
  640.00  5.9841E-007  
  640.50  2.6763E-006  
  641.00  0.0000E+000  
  641.50  0.0000E+000  
  642.00  0.0000E+000  
  642.50  2.8254E-006  
  643.00  3.9982E-005  
  643.50  9.4092E-005  
  644.00  1.2739E-004  
  644.50  1.1390E-004  
  645.00  8.0279E-005  
  645.50  4.3919E-005  
  646.00  2.4420E-005  
  646.50  3.0474E-005  
  647.00  6.7165E-005  
  647.50  8.9354E-005  
  648.00  1.0174E-004  
  648.50  8.0270E-005  
  649.00  6.9720E-005  
  649.50  1.0323E-004  
  650.00  1.6388E-004  
  650.50  2.2029E-004  
  651.00  2.1280E-004  
  651.50  2.1191E-004  
  652.00  2.0316E-004  
  652.50  1.9929E-004  
  653.00  1.3724E-004  
  653.50  1.0249E-004  
  654.00  4.6571E-005  
  654.50  4.4254E-005  
  655.00  2.9349E-006  
  655.50  1.5871E-005  
  656.00  3.7562E-005  
  656.50  1.3296E-004  
  657.00  1.3768E-004  
  657.50  1.3616E-004  
  658.00  3.3950E-005  
  658.50  7.8592E-006  
  659.00  0.0000E+000  
  659.50  3.3552E-005  
  660.00  1.0020E-004  
  660.50  1.3362E-004  
  661.00  1.6238E-004  
  661.50  2.0462E-004  
  662.00  2.2235E-004  
  662.50  1.9365E-004  
  663.00  1.1473E-004  
  663.50  7.8867E-005  
  664.00  8.3069E-005  
  664.50  8.0285E-005  
  665.00  7.6474E-005  
  665.50  4.7661E-005  
  666.00  1.5511E-005  
  666.50  1.1451E-005  
  667.00  4.3413E-005  
  667.50  9.8831E-005  
  668.00  1.2013E-004  
  668.50  6.8710E-005  
  669.00  5.4067E-006  
  669.50  0.0000E+000  
  670.00  0.0000E+000  
  670.50  0.0000E+000  
  671.00  0.0000E+000  
  671.50  2.3167E-006  
  672.00  4.4155E-005  
  672.50  1.9447E-005  
  673.00  1.5480E-005  
  673.50  4.1334E-005  
  674.00  7.0654E-005  
  674.50  5.8620E-005  
  675.00  2.4137E-006  
  675.50  0.0000E+000  
  676.00  0.0000E+000  
  676.50  0.0000E+000  
  677.00  0.0000E+000  
  677.50  0.0000E+000  
  678.00  0.0000E+000  
  678.50  0.0000E+000  
  679.00  0.0000E+000  
  679.50  0.0000E+000  
  680.00  0.0000E+000  
  680.50  1.8996E-006  
  681.00  3.1010E-005  
