
# From lspdd.org
# 
# Name: Halo Globe A19 Domestique
# Indice spectral Valeur 
# MSI 0.30 
# SLI 0.53 
# IPI 0.90 
# Pourcentage de bleu 14.0 
# Caractéristique Valeur 
# CCT calculée (K) 2783 
# CCT du fabricant (K) 2800 
# Tension (V) 120 
# Puissance (W) 29.0 
# Efficacité lumineuse (Lum/W) 11.9 
#
# Image: '/app/system/img_2s/2620/medium_image2.JPG?1413486719'
# Image: '/app/system/img_1s/2620/medium_image1.JPG?1413486723'
# 

  273.00  0.0000E+000  
  273.50  0.0000E+000  
  274.00  0.0000E+000  
  274.50  0.0000E+000  
  275.00  0.0000E+000  
  275.50  0.0000E+000  
  276.00  0.0000E+000  
  276.50  0.0000E+000  
  277.00  0.0000E+000  
  277.50  0.0000E+000  
  278.00  0.0000E+000  
  278.50  0.0000E+000  
  279.00  0.0000E+000  
  279.50  0.0000E+000  
  280.00  0.0000E+000  
  280.50  0.0000E+000  
  281.00  0.0000E+000  
  281.50  0.0000E+000  
  282.00  0.0000E+000  
  282.50  0.0000E+000  
  283.00  0.0000E+000  
  283.50  0.0000E+000  
  284.00  0.0000E+000  
  284.50  0.0000E+000  
  285.00  0.0000E+000  
  285.50  0.0000E+000  
  286.00  0.0000E+000  
  286.50  0.0000E+000  
  287.00  0.0000E+000  
  287.50  0.0000E+000  
  288.00  0.0000E+000  
  288.50  0.0000E+000  
  289.00  0.0000E+000  
  289.50  0.0000E+000  
  290.00  0.0000E+000  
  290.50  0.0000E+000  
  291.00  0.0000E+000  
  291.50  0.0000E+000  
  292.00  0.0000E+000  
  292.50  0.0000E+000  
  293.00  0.0000E+000  
  293.50  0.0000E+000  
  294.00  0.0000E+000  
  294.50  0.0000E+000  
  295.00  0.0000E+000  
  295.50  0.0000E+000  
  296.00  0.0000E+000  
  296.50  0.0000E+000  
  297.00  0.0000E+000  
  297.50  0.0000E+000  
  298.00  0.0000E+000  
  298.50  0.0000E+000  
  299.00  0.0000E+000  
  299.50  0.0000E+000  
  300.00  0.0000E+000  
  300.50  0.0000E+000  
  301.00  0.0000E+000  
  301.50  0.0000E+000  
  302.00  0.0000E+000  
  302.50  0.0000E+000  
  303.00  0.0000E+000  
  303.50  0.0000E+000  
  304.00  0.0000E+000  
  304.50  0.0000E+000  
  305.00  0.0000E+000  
  305.50  0.0000E+000  
  306.00  0.0000E+000  
  306.50  0.0000E+000  
  307.00  0.0000E+000  
  307.50  0.0000E+000  
  308.00  0.0000E+000  
  308.50  0.0000E+000  
  309.00  0.0000E+000  
  309.50  0.0000E+000  
  310.00  0.0000E+000  
  310.50  0.0000E+000  
  311.00  0.0000E+000  
  311.50  0.0000E+000  
  312.00  0.0000E+000  
  312.50  0.0000E+000  
  313.00  0.0000E+000  
  313.50  0.0000E+000  
  314.00  0.0000E+000  
  314.50  0.0000E+000  
  315.00  0.0000E+000  
  315.50  0.0000E+000  
  316.00  0.0000E+000  
  316.50  0.0000E+000  
  317.00  0.0000E+000  
  317.50  0.0000E+000  
  318.00  0.0000E+000  
  318.50  0.0000E+000  
  319.00  0.0000E+000  
  319.50  0.0000E+000  
  320.00  0.0000E+000  
  320.50  0.0000E+000  
  321.00  0.0000E+000  
  321.50  0.0000E+000  
  322.00  0.0000E+000  
  322.50  0.0000E+000  
  323.00  0.0000E+000  
  323.50  0.0000E+000  
  324.00  0.0000E+000  
  324.50  0.0000E+000  
  325.00  0.0000E+000  
  325.50  0.0000E+000  
  326.00  0.0000E+000  
  326.50  0.0000E+000  
  327.00  0.0000E+000  
  327.50  0.0000E+000  
  328.00  0.0000E+000  
  328.50  0.0000E+000  
  329.00  0.0000E+000  
  329.50  0.0000E+000  
  330.00  0.0000E+000  
  330.50  0.0000E+000  
  331.00  0.0000E+000  
  331.50  6.3130E-006  
  332.00  2.8370E-005  
  332.50  7.5114E-006  
  333.00  0.0000E+000  
  333.50  0.0000E+000  
  334.00  0.0000E+000  
  334.50  0.0000E+000  
  335.00  0.0000E+000  
  335.50  0.0000E+000  
  336.00  0.0000E+000  
  336.50  0.0000E+000  
  337.00  0.0000E+000  
  337.50  0.0000E+000  
  338.00  0.0000E+000  
  338.50  0.0000E+000  
  339.00  0.0000E+000  
  339.50  0.0000E+000  
  340.00  0.0000E+000  
  340.50  0.0000E+000  
  341.00  0.0000E+000  
  341.50  0.0000E+000  
  342.00  0.0000E+000  
  342.50  0.0000E+000  
  343.00  0.0000E+000  
  343.50  0.0000E+000  
  344.00  0.0000E+000  
  344.50  0.0000E+000  
  345.00  0.0000E+000  
  345.50  0.0000E+000  
  346.00  0.0000E+000  
  346.50  0.0000E+000  
  347.00  0.0000E+000  
  347.50  0.0000E+000  
  348.00  0.0000E+000  
  348.50  0.0000E+000  
  349.00  0.0000E+000  
  349.50  0.0000E+000  
  350.00  0.0000E+000  
  350.50  0.0000E+000  
  351.00  0.0000E+000  
  351.50  0.0000E+000  
  352.00  9.7287E-006  
  352.50  6.8778E-006  
  353.00  1.3233E-005  
  353.50  2.7525E-005  
  354.00  0.0000E+000  
  354.50  0.0000E+000  
  355.00  0.0000E+000  
  355.50  0.0000E+000  
  356.00  1.3300E-005  
  356.50  4.7621E-005  
  357.00  8.3421E-005  
  357.50  1.2198E-004  
  358.00  1.0268E-004  
  358.50  6.6680E-005  
  359.00  1.0848E-005  
  359.50  0.0000E+000  
  360.00  0.0000E+000  
  360.50  0.0000E+000  
  361.00  0.0000E+000  
  361.50  0.0000E+000  
  362.00  0.0000E+000  
  362.50  1.0489E-005  
  363.00  4.4069E-006  
  363.50  1.7593E-006  
  364.00  1.0160E-005  
  364.50  0.0000E+000  
  365.00  0.0000E+000  
  365.50  0.0000E+000  
  366.00  0.0000E+000  
  366.50  1.1265E-005  
  367.00  2.5272E-005  
  367.50  1.7951E-005  
  368.00  4.6229E-005  
  368.50  9.2127E-005  
  369.00  1.2795E-004  
  369.50  1.6612E-004  
  370.00  1.7874E-004  
  370.50  1.5870E-004  
  371.00  1.5680E-004  
  371.50  1.3316E-004  
  372.00  8.3083E-005  
  372.50  6.1199E-005  
  373.00  2.0327E-005  
  373.50  0.0000E+000  
  374.00  0.0000E+000  
  374.50  2.5679E-006  
  375.00  2.7835E-005  
  375.50  6.0040E-005  
  376.00  8.5790E-005  
  376.50  8.0439E-005  
  377.00  6.3291E-005  
  377.50  3.5586E-005  
  378.00  1.5437E-006  
  378.50  0.0000E+000  
  379.00  0.0000E+000  
  379.50  0.0000E+000  
  380.00  2.4381E-005  
  380.50  5.2982E-005  
  381.00  8.4878E-005  
  381.50  1.3602E-004  
  382.00  1.5794E-004  
  382.50  1.5373E-004  
  383.00  1.3568E-004  
  383.50  9.8696E-005  
  384.00  6.5937E-005  
  384.50  8.9234E-005  
  385.00  1.1656E-004  
  385.50  1.7078E-004  
  386.00  2.1380E-004  
  386.50  2.2007E-004  
  387.00  2.6865E-004  
  387.50  3.5478E-004  
  388.00  3.7338E-004  
  388.50  3.7928E-004  
  389.00  3.6537E-004  
  389.50  3.5091E-004  
  390.00  3.8209E-004  
  390.50  4.0703E-004  
  391.00  3.8949E-004  
  391.50  3.7375E-004  
  392.00  3.4141E-004  
  392.50  3.8158E-004  
  393.00  4.7324E-004  
  393.50  5.7013E-004  
  394.00  6.7313E-004  
  394.50  7.0736E-004  
  395.00  6.9974E-004  
  395.50  6.6549E-004  
  396.00  6.1474E-004  
  396.50  5.9438E-004  
  397.00  6.4096E-004  
  397.50  7.2353E-004  
  398.00  7.9949E-004  
  398.50  8.2913E-004  
  399.00  8.3564E-004  
  399.50  8.5141E-004  
  400.00  8.3511E-004  
  400.50  8.7782E-004  
  401.00  9.6435E-004  
  401.50  1.0098E-003  
  402.00  1.0762E-003  
  402.50  1.0751E-003  
  403.00  1.0980E-003  
  403.50  1.2028E-003  
  404.00  1.2670E-003  
  404.50  1.3055E-003  
  405.00  1.2802E-003  
  405.50  1.2481E-003  
  406.00  1.2564E-003  
  406.50  1.2943E-003  
  407.00  1.4269E-003  
  407.50  1.5118E-003  
  408.00  1.5871E-003  
  408.50  1.6033E-003  
  409.00  1.6317E-003  
  409.50  1.6900E-003  
  410.00  1.7246E-003  
  410.50  1.7365E-003  
  411.00  1.6863E-003  
  411.50  1.6850E-003  
  412.00  1.7231E-003  
  412.50  1.7941E-003  
  413.00  1.8699E-003  
  413.50  1.8958E-003  
  414.00  1.9075E-003  
  414.50  1.9504E-003  
  415.00  2.0207E-003  
  415.50  2.0848E-003  
  416.00  2.0979E-003  
  416.50  2.0819E-003  
  417.00  2.0368E-003  
  417.50  2.0438E-003  
  418.00  2.0598E-003  
  418.50  2.0796E-003  
  419.00  2.0933E-003  
  419.50  2.0888E-003  
  420.00  2.0758E-003  
  420.50  2.1031E-003  
  421.00  2.1380E-003  
  421.50  2.2165E-003  
  422.00  2.3192E-003  
  422.50  2.3774E-003  
  423.00  2.4294E-003  
  423.50  2.3888E-003  
  424.00  2.3941E-003  
  424.50  2.4004E-003  
  425.00  2.4702E-003  
  425.50  2.5130E-003  
  426.00  2.5031E-003  
  426.50  2.5026E-003  
  427.00  2.5302E-003  
  427.50  2.5797E-003  
  428.00  2.6526E-003  
  428.50  2.6451E-003  
  429.00  2.6611E-003  
  429.50  2.7022E-003  
  430.00  2.7052E-003  
  430.50  2.7024E-003  
  431.00  2.6458E-003  
  431.50  2.6323E-003  
  432.00  2.6559E-003  
  432.50  2.7314E-003  
  433.00  2.7815E-003  
  433.50  2.8199E-003  
  434.00  2.8253E-003  
  434.50  2.8392E-003  
  435.00  2.8504E-003  
  435.50  2.8876E-003  
  436.00  2.9183E-003  
  436.50  2.9448E-003  
  437.00  3.0156E-003  
  437.50  3.0500E-003  
  438.00  3.1052E-003  
  438.50  3.1718E-003  
  439.00  3.2153E-003  
  439.50  3.1994E-003  
  440.00  3.1601E-003  
  440.50  3.1468E-003  
  441.00  3.1714E-003  
  441.50  3.2159E-003  
  442.00  3.2682E-003  
  442.50  3.2583E-003  
  443.00  3.2885E-003  
  443.50  3.2877E-003  
  444.00  3.3232E-003  
  444.50  3.4254E-003  
  445.00  3.5123E-003  
  445.50  3.5957E-003  
  446.00  3.6144E-003  
  446.50  3.5786E-003  
  447.00  3.5327E-003  
  447.50  3.5120E-003  
  448.00  3.5308E-003  
  448.50  3.5432E-003  
  449.00  3.6028E-003  
  449.50  3.6813E-003  
  450.00  3.7556E-003  
  450.50  3.7760E-003  
  451.00  3.7478E-003  
  451.50  3.7134E-003  
  452.00  3.7412E-003  
  452.50  3.8433E-003  
  453.00  3.8997E-003  
  453.50  3.8946E-003  
  454.00  3.9151E-003  
  454.50  3.9159E-003  
  455.00  3.9232E-003  
  455.50  4.0152E-003  
  456.00  4.0905E-003  
  456.50  4.1634E-003  
  457.00  4.2128E-003  
  457.50  4.1776E-003  
  458.00  4.1886E-003  
  458.50  4.1812E-003  
  459.00  4.1639E-003  
  459.50  4.1656E-003  
  460.00  4.1945E-003  
  460.50  4.2989E-003  
  461.00  4.3868E-003  
  461.50  4.4870E-003  
  462.00  4.5040E-003  
  462.50  4.5077E-003  
  463.00  4.5354E-003  
  463.50  4.5720E-003  
  464.00  4.6089E-003  
  464.50  4.5862E-003  
  465.00  4.5719E-003  
  465.50  4.6027E-003  
  466.00  4.6625E-003  
  466.50  4.7390E-003  
  467.00  4.7965E-003  
  467.50  4.8239E-003  
  468.00  4.8911E-003  
  468.50  4.9211E-003  
  469.00  4.9565E-003  
  469.50  4.9727E-003  
  470.00  4.9716E-003  
  470.50  4.9888E-003  
  471.00  5.0775E-003  
  471.50  5.1258E-003  
  472.00  5.1509E-003  
  472.50  5.1730E-003  
  473.00  5.2051E-003  
  473.50  5.2961E-003  
  474.00  5.3430E-003  
  474.50  5.3162E-003  
  475.00  5.3242E-003  
  475.50  5.3368E-003  
  476.00  5.4072E-003  
  476.50  5.4942E-003  
  477.00  5.5211E-003  
  477.50  5.5406E-003  
  478.00  5.5183E-003  
  478.50  5.5550E-003  
  479.00  5.6229E-003  
  479.50  5.7142E-003  
  480.00  5.8050E-003  
  480.50  5.8321E-003  
  481.00  5.8215E-003  
  481.50  5.8278E-003  
  482.00  5.8331E-003  
  482.50  5.8569E-003  
  483.00  5.8700E-003  
  483.50  5.9382E-003  
  484.00  6.0156E-003  
  484.50  6.0640E-003  
  485.00  6.0671E-003  
  485.50  6.0625E-003  
  486.00  6.0959E-003  
  486.50  6.1555E-003  
  487.00  6.2185E-003  
  487.50  6.2620E-003  
  488.00  6.2927E-003  
  488.50  6.3315E-003  
  489.00  6.3506E-003  
  489.50  6.3730E-003  
  490.00  6.3741E-003  
  490.50  6.3637E-003  
  491.00  6.3959E-003  
  491.50  6.4402E-003  
  492.00  6.4946E-003  
  492.50  6.5385E-003  
  493.00  6.5766E-003  
  493.50  6.6270E-003  
  494.00  6.7035E-003  
  494.50  6.8159E-003  
  495.00  6.9084E-003  
  495.50  6.9814E-003  
  496.00  6.9772E-003  
  496.50  6.9723E-003  
  497.00  7.0007E-003  
  497.50  7.0682E-003  
  498.00  7.1537E-003  
  498.50  7.1941E-003  
  499.00  7.2100E-003  
  499.50  7.2473E-003  
  500.00  7.3142E-003  
  500.50  7.3753E-003  
  501.00  7.4524E-003  
  501.50  7.4954E-003  
  502.00  7.5894E-003  
  502.50  7.6568E-003  
  503.00  7.6775E-003  
  503.50  7.6931E-003  
  504.00  7.7253E-003  
  504.50  7.8199E-003  
  505.00  7.9310E-003  
  505.50  8.0180E-003  
  506.00  8.0570E-003  
  506.50  8.0811E-003  
  507.00  8.1153E-003  
  507.50  8.1511E-003  
  508.00  8.1740E-003  
  508.50  8.1740E-003  
  509.00  8.2584E-003  
  509.50  8.3717E-003  
  510.00  8.4981E-003  
  510.50  8.5799E-003  
  511.00  8.6230E-003  
  511.50  8.6708E-003  
  512.00  8.7279E-003  
  512.50  8.7902E-003  
  513.00  8.8608E-003  
  513.50  8.9324E-003  
  514.00  8.9769E-003  
  514.50  9.0243E-003  
  515.00  9.0525E-003  
  515.50  9.0799E-003  
  516.00  9.1518E-003  
  516.50  9.2300E-003  
  517.00  9.3241E-003  
  517.50  9.3875E-003  
  518.00  9.4510E-003  
  518.50  9.5306E-003  
  519.00  9.6240E-003  
  519.50  9.6820E-003  
  520.00  9.7337E-003  
  520.50  9.8032E-003  
  521.00  9.8738E-003  
  521.50  9.9282E-003  
  522.00  9.9977E-003  
  522.50  1.0097E-002  
  523.00  1.0210E-002  
  523.50  1.0302E-002  
  524.00  1.0346E-002  
  524.50  1.0358E-002  
  525.00  1.0390E-002  
  525.50  1.0418E-002  
  526.00  1.0475E-002  
  526.50  1.0523E-002  
  527.00  1.0600E-002  
  527.50  1.0675E-002  
  528.00  1.0762E-002  
  528.50  1.0827E-002  
  529.00  1.0916E-002  
  529.50  1.1004E-002  
  530.00  1.1091E-002  
  530.50  1.1155E-002  
  531.00  1.1208E-002  
  531.50  1.1280E-002  
  532.00  1.1342E-002  
  532.50  1.1415E-002  
  533.00  1.1468E-002  
  533.50  1.1501E-002  
  534.00  1.1544E-002  
  534.50  1.1614E-002  
  535.00  1.1675E-002  
  535.50  1.1739E-002  
  536.00  1.1769E-002  
  536.50  1.1842E-002  
  537.00  1.1931E-002  
  537.50  1.2054E-002  
  538.00  1.2139E-002  
  538.50  1.2175E-002  
  539.00  1.2212E-002  
  539.50  1.2273E-002  
  540.00  1.2384E-002  
  540.50  1.2516E-002  
  541.00  1.2591E-002  
  541.50  1.2654E-002  
  542.00  1.2695E-002  
  542.50  1.2754E-002  
  543.00  1.2932E-002  
  543.50  1.3055E-002  
  544.00  1.3144E-002  
  544.50  1.3173E-002  
  545.00  1.3217E-002  
  545.50  1.3280E-002  
  546.00  1.3298E-002  
  546.50  1.3311E-002  
  547.00  1.3343E-002  
  547.50  1.3432E-002  
  548.00  1.3517E-002  
  548.50  1.3630E-002  
  549.00  1.3732E-002  
  549.50  1.3772E-002  
  550.00  1.3784E-002  
  550.50  1.3840E-002  
  551.00  1.3946E-002  
  551.50  1.4040E-002  
  552.00  1.4081E-002  
  552.50  1.4116E-002  
  553.00  1.4185E-002  
  553.50  1.4288E-002  
  554.00  1.4350E-002  
  554.50  1.4411E-002  
  555.00  1.4470E-002  
  555.50  1.4533E-002  
  556.00  1.4601E-002  
  556.50  1.4657E-002  
  557.00  1.4724E-002  
  557.50  1.4837E-002  
  558.00  1.4933E-002  
  558.50  1.5010E-002  
  559.00  1.5062E-002  
  559.50  1.5119E-002  
  560.00  1.5208E-002  
  560.50  1.5297E-002  
  561.00  1.5366E-002  
  561.50  1.5425E-002  
  562.00  1.5486E-002  
  562.50  1.5524E-002  
  563.00  1.5530E-002  
  563.50  1.5558E-002  
  564.00  1.5580E-002  
  564.50  1.5625E-002  
  565.00  1.5656E-002  
  565.50  1.5770E-002  
  566.00  1.5879E-002  
  566.50  1.5973E-002  
  567.00  1.5999E-002  
  567.50  1.6034E-002  
  568.00  1.6046E-002  
  568.50  1.6086E-002  
  569.00  1.6137E-002  
  569.50  1.6249E-002  
  570.00  1.6343E-002  
  570.50  1.6407E-002  
  571.00  1.6472E-002  
  571.50  1.6507E-002  
  572.00  1.6517E-002  
  572.50  1.6529E-002  
  573.00  1.6582E-002  
  573.50  1.6638E-002  
  574.00  1.6724E-002  
  574.50  1.6781E-002  
  575.00  1.6865E-002  
  575.50  1.6909E-002  
  576.00  1.6944E-002  
  576.50  1.7037E-002  
  577.00  1.7119E-002  
  577.50  1.7194E-002  
  578.00  1.7228E-002  
  578.50  1.7284E-002  
  579.00  1.7320E-002  
  579.50  1.7335E-002  
  580.00  1.7313E-002  
  580.50  1.7357E-002  
  581.00  1.7445E-002  
  581.50  1.7561E-002  
  582.00  1.7595E-002  
  582.50  1.7591E-002  
  583.00  1.7574E-002  
  583.50  1.7638E-002  
  584.00  1.7746E-002  
  584.50  1.7820E-002  
  585.00  1.7823E-002  
  585.50  1.7821E-002  
  586.00  1.7843E-002  
  586.50  1.7980E-002  
  587.00  1.8060E-002  
  587.50  1.8182E-002  
  588.00  1.8186E-002  
  588.50  1.8244E-002  
  589.00  1.8292E-002  
  589.50  1.8358E-002  
  590.00  1.8424E-002  
  590.50  1.8468E-002  
  591.00  1.8465E-002  
  591.50  1.8461E-002  
  592.00  1.8497E-002  
  592.50  1.8581E-002  
  593.00  1.8643E-002  
  593.50  1.8630E-002  
  594.00  1.8620E-002  
  594.50  1.8648E-002  
  595.00  1.8736E-002  
  595.50  1.8787E-002  
  596.00  1.8874E-002  
  596.50  1.8923E-002  
  597.00  1.8964E-002  
  597.50  1.8967E-002  
  598.00  1.9016E-002  
  598.50  1.9103E-002  
  599.00  1.9205E-002  
  599.50  1.9257E-002  
  600.00  1.9322E-002  
  600.50  1.9323E-002  
  601.00  1.9345E-002  
  601.50  1.9296E-002  
  602.00  1.9334E-002  
  602.50  1.9366E-002  
  603.00  1.9440E-002  
  603.50  1.9471E-002  
  604.00  1.9504E-002  
  604.50  1.9548E-002  
  605.00  1.9597E-002  
  605.50  1.9635E-002  
  606.00  1.9627E-002  
  606.50  1.9685E-002  
  607.00  1.9741E-002  
  607.50  1.9767E-002  
  608.00  1.9783E-002  
  608.50  1.9791E-002  
  609.00  1.9857E-002  
  609.50  1.9858E-002  
  610.00  1.9841E-002  
  610.50  1.9876E-002  
  611.00  1.9953E-002  
  611.50  2.0049E-002  
  612.00  2.0085E-002  
  612.50  2.0103E-002  
  613.00  2.0128E-002  
  613.50  2.0081E-002  
  614.00  2.0115E-002  
  614.50  2.0148E-002  
  615.00  2.0260E-002  
  615.50  2.0305E-002  
  616.00  2.0270E-002  
  616.50  2.0250E-002  
  617.00  2.0257E-002  
  617.50  2.0311E-002  
  618.00  2.0374E-002  
  618.50  2.0438E-002  
  619.00  2.0488E-002  
  619.50  2.0502E-002  
  620.00  2.0493E-002  
  620.50  2.0510E-002  
  621.00  2.0572E-002  
  621.50  2.0650E-002  
  622.00  2.0726E-002  
  622.50  2.0773E-002  
  623.00  2.0776E-002  
  623.50  2.0766E-002  
  624.00  2.0733E-002  
  624.50  2.0789E-002  
  625.00  2.0898E-002  
  625.50  2.0971E-002  
  626.00  2.0981E-002  
  626.50  2.0928E-002  
  627.00  2.0938E-002  
  627.50  2.0914E-002  
  628.00  2.0916E-002  
  628.50  2.0954E-002  
  629.00  2.1057E-002  
  629.50  2.1153E-002  
  630.00  2.1144E-002  
  630.50  2.1122E-002  
  631.00  2.1147E-002  
  631.50  2.1230E-002  
  632.00  2.1348E-002  
  632.50  2.1413E-002  
  633.00  2.1433E-002  
  633.50  2.1441E-002  
  634.00  2.1403E-002  
  634.50  2.1410E-002  
  635.00  2.1439E-002  
  635.50  2.1483E-002  
  636.00  2.1515E-002  
  636.50  2.1513E-002  
  637.00  2.1512E-002  
  637.50  2.1497E-002  
  638.00  2.1474E-002  
  638.50  2.1503E-002  
  639.00  2.1562E-002  
  639.50  2.1676E-002  
  640.00  2.1723E-002  
  640.50  2.1772E-002  
  641.00  2.1770E-002  
  641.50  2.1875E-002  
  642.00  2.1940E-002  
  642.50  2.1977E-002  
  643.00  2.1899E-002  
  643.50  2.1865E-002  
  644.00  2.1797E-002  
  644.50  2.1811E-002  
  645.00  2.1824E-002  
  645.50  2.1901E-002  
  646.00  2.1969E-002  
  646.50  2.1998E-002  
  647.00  2.2075E-002  
  647.50  2.2134E-002  
  648.00  2.2216E-002  
  648.50  2.2219E-002  
  649.00  2.2165E-002  
  649.50  2.2107E-002  
  650.00  2.2091E-002  
  650.50  2.2076E-002  
  651.00  2.2050E-002  
  651.50  2.2066E-002  
  652.00  2.2092E-002  
  652.50  2.2222E-002  
  653.00  2.2300E-002  
  653.50  2.2352E-002  
  654.00  2.2394E-002  
  654.50  2.2407E-002  
  655.00  2.2440E-002  
  655.50  2.2441E-002  
  656.00  2.2480E-002  
  656.50  2.2456E-002  
  657.00  2.2402E-002  
  657.50  2.2364E-002  
  658.00  2.2385E-002  
  658.50  2.2434E-002  
  659.00  2.2546E-002  
  659.50  2.2707E-002  
  660.00  2.2806E-002  
  660.50  2.2728E-002  
  661.00  2.2615E-002  
  661.50  2.2604E-002  
  662.00  2.2674E-002  
  662.50  2.2700E-002  
  663.00  2.2701E-002  
  663.50  2.2684E-002  
  664.00  2.2705E-002  
  664.50  2.2660E-002  
  665.00  2.2624E-002  
  665.50  2.2603E-002  
  666.00  2.2651E-002  
  666.50  2.2695E-002  
  667.00  2.2808E-002  
  667.50  2.2805E-002  
  668.00  2.2810E-002  
  668.50  2.2760E-002  
  669.00  2.2725E-002  
  669.50  2.2730E-002  
  670.00  2.2796E-002  
  670.50  2.2903E-002  
  671.00  2.3014E-002  
  671.50  2.3017E-002  
  672.00  2.3143E-002  
  672.50  2.3215E-002  
  673.00  2.3246E-002  
  673.50  2.3172E-002  
  674.00  2.3070E-002  
  674.50  2.3065E-002  
  675.00  2.3053E-002  
  675.50  2.3074E-002  
  676.00  2.2987E-002  
  676.50  2.2988E-002  
  677.00  2.2978E-002  
  677.50  2.3076E-002  
  678.00  2.3132E-002  
  678.50  2.3139E-002  
  679.00  2.3148E-002  
  679.50  2.3198E-002  
  680.00  2.3287E-002  
