
# From lspdd.org
# 
# Name: Halo Globe BR40 Domestique
# Indice spectral Valeur 
# MSI 0.34 
# SLI 0.55 
# IPI 0.91 
# Pourcentage de bleu 15.5 
# Caractéristique Valeur 
# CCT calculée (K) 2889 
# CCT du fabricant (K) 2840 
# Tension (V) 120 
# Puissance (W) 65.0 
# Efficacité lumineuse (Lum/W) 14.3 
#
# Image: '/app/system/img_2s/2625/medium_image2.JPG?1413486752'
# Image: '/app/system/img_1s/2625/medium_image1.JPG?1413486756'
# 

  273.00  0.0000E+000  
  273.50  0.0000E+000  
  274.00  0.0000E+000  
  274.50  0.0000E+000  
  275.00  0.0000E+000  
  275.50  0.0000E+000  
  276.00  0.0000E+000  
  276.50  0.0000E+000  
  277.00  0.0000E+000  
  277.50  0.0000E+000  
  278.00  0.0000E+000  
  278.50  0.0000E+000  
  279.00  0.0000E+000  
  279.50  0.0000E+000  
  280.00  0.0000E+000  
  280.50  0.0000E+000  
  281.00  0.0000E+000  
  281.50  0.0000E+000  
  282.00  0.0000E+000  
  282.50  0.0000E+000  
  283.00  0.0000E+000  
  283.50  0.0000E+000  
  284.00  0.0000E+000  
  284.50  0.0000E+000  
  285.00  0.0000E+000  
  285.50  0.0000E+000  
  286.00  0.0000E+000  
  286.50  0.0000E+000  
  287.00  0.0000E+000  
  287.50  0.0000E+000  
  288.00  0.0000E+000  
  288.50  0.0000E+000  
  289.00  0.0000E+000  
  289.50  0.0000E+000  
  290.00  0.0000E+000  
  290.50  0.0000E+000  
  291.00  0.0000E+000  
  291.50  0.0000E+000  
  292.00  0.0000E+000  
  292.50  0.0000E+000  
  293.00  0.0000E+000  
  293.50  0.0000E+000  
  294.00  0.0000E+000  
  294.50  0.0000E+000  
  295.00  0.0000E+000  
  295.50  0.0000E+000  
  296.00  0.0000E+000  
  296.50  0.0000E+000  
  297.00  0.0000E+000  
  297.50  0.0000E+000  
  298.00  0.0000E+000  
  298.50  0.0000E+000  
  299.00  0.0000E+000  
  299.50  0.0000E+000  
  300.00  0.0000E+000  
  300.50  0.0000E+000  
  301.00  0.0000E+000  
  301.50  8.5461E-006  
  302.00  6.2725E-005  
  302.50  1.2819E-004  
  303.00  1.8693E-004  
  303.50  2.0549E-004  
  304.00  2.1697E-004  
  304.50  2.3044E-004  
  305.00  1.9003E-004  
  305.50  1.2941E-004  
  306.00  1.2420E-004  
  306.50  8.5424E-005  
  307.00  1.0145E-004  
  307.50  1.2356E-004  
  308.00  7.9893E-005  
  308.50  6.2499E-005  
  309.00  5.9489E-005  
  309.50  5.0577E-005  
  310.00  6.8037E-005  
  310.50  6.8115E-005  
  311.00  1.0453E-004  
  311.50  1.6710E-004  
  312.00  2.3313E-004  
  312.50  2.9718E-004  
  313.00  2.9519E-004  
  313.50  2.7868E-004  
  314.00  2.6836E-004  
  314.50  2.5560E-004  
  315.00  2.6542E-004  
  315.50  2.6294E-004  
  316.00  2.6713E-004  
  316.50  2.8082E-004  
  317.00  2.6509E-004  
  317.50  2.3707E-004  
  318.00  2.0225E-004  
  318.50  1.5321E-004  
  319.00  1.5344E-004  
  319.50  2.4629E-004  
  320.00  3.2500E-004  
  320.50  3.8218E-004  
  321.00  3.9474E-004  
  321.50  3.7669E-004  
  322.00  3.5152E-004  
  322.50  3.1262E-004  
  323.00  2.7403E-004  
  323.50  2.4457E-004  
  324.00  2.7498E-004  
  324.50  2.9330E-004  
  325.00  3.1317E-004  
  325.50  3.4007E-004  
  326.00  3.4702E-004  
  326.50  3.8997E-004  
  327.00  4.0639E-004  
  327.50  3.9570E-004  
  328.00  3.7266E-004  
  328.50  3.5797E-004  
  329.00  3.5506E-004  
  329.50  3.5017E-004  
  330.00  3.7327E-004  
  330.50  3.8777E-004  
  331.00  4.0529E-004  
  331.50  4.4224E-004  
  332.00  4.9187E-004  
  332.50  5.4368E-004  
  333.00  6.0226E-004  
  333.50  6.9658E-004  
  334.00  6.8638E-004  
  334.50  6.3422E-004  
  335.00  5.9588E-004  
  335.50  5.2557E-004  
  336.00  5.1695E-004  
  336.50  5.1771E-004  
  337.00  5.2691E-004  
  337.50  5.6333E-004  
  338.00  6.2118E-004  
  338.50  6.8079E-004  
  339.00  6.7978E-004  
  339.50  6.9437E-004  
  340.00  7.2105E-004  
  340.50  7.2059E-004  
  341.00  7.7815E-004  
  341.50  7.9501E-004  
  342.00  8.2036E-004  
  342.50  8.3833E-004  
  343.00  8.1043E-004  
  343.50  7.9339E-004  
  344.00  7.1958E-004  
  344.50  7.3465E-004  
  345.00  7.8704E-004  
  345.50  8.0787E-004  
  346.00  8.3402E-004  
  346.50  7.8519E-004  
  347.00  7.8466E-004  
  347.50  8.3394E-004  
  348.00  8.5238E-004  
  348.50  8.9357E-004  
  349.00  9.6025E-004  
  349.50  9.8627E-004  
  350.00  1.0555E-003  
  350.50  1.0919E-003  
  351.00  1.0886E-003  
  351.50  1.1030E-003  
  352.00  1.1295E-003  
  352.50  1.0759E-003  
  353.00  1.0415E-003  
  353.50  1.0484E-003  
  354.00  1.0016E-003  
  354.50  1.0351E-003  
  355.00  1.0642E-003  
  355.50  1.0775E-003  
  356.00  1.1495E-003  
  356.50  1.1675E-003  
  357.00  1.1785E-003  
  357.50  1.2013E-003  
  358.00  1.1956E-003  
  358.50  1.1975E-003  
  359.00  1.2130E-003  
  359.50  1.2220E-003  
  360.00  1.2755E-003  
  360.50  1.3011E-003  
  361.00  1.3101E-003  
  361.50  1.3380E-003  
  362.00  1.3567E-003  
  362.50  1.3975E-003  
  363.00  1.4065E-003  
  363.50  1.4291E-003  
  364.00  1.4832E-003  
  364.50  1.4803E-003  
  365.00  1.4635E-003  
  365.50  1.4130E-003  
  366.00  1.3773E-003  
  366.50  1.4060E-003  
  367.00  1.4526E-003  
  367.50  1.5375E-003  
  368.00  1.6629E-003  
  368.50  1.8057E-003  
  369.00  1.8786E-003  
  369.50  1.9044E-003  
  370.00  1.8547E-003  
  370.50  1.8126E-003  
  371.00  1.7932E-003  
  371.50  1.7773E-003  
  372.00  1.7887E-003  
  372.50  1.7855E-003  
  373.00  1.8157E-003  
  373.50  1.8559E-003  
  374.00  1.8766E-003  
  374.50  1.9165E-003  
  375.00  1.8951E-003  
  375.50  1.8756E-003  
  376.00  1.8718E-003  
  376.50  1.8618E-003  
  377.00  1.8815E-003  
  377.50  1.9062E-003  
  378.00  1.9133E-003  
  378.50  1.9512E-003  
  379.00  1.9526E-003  
  379.50  1.9933E-003  
  380.00  2.0443E-003  
  380.50  2.1076E-003  
  381.00  2.1498E-003  
  381.50  2.1946E-003  
  382.00  2.2397E-003  
  382.50  2.2510E-003  
  383.00  2.2508E-003  
  383.50  2.2434E-003  
  384.00  2.1939E-003  
  384.50  2.2414E-003  
  385.00  2.3003E-003  
  385.50  2.3556E-003  
  386.00  2.4260E-003  
  386.50  2.4187E-003  
  387.00  2.4428E-003  
  387.50  2.5143E-003  
  388.00  2.5683E-003  
  388.50  2.6280E-003  
  389.00  2.6548E-003  
  389.50  2.6432E-003  
  390.00  2.6238E-003  
  390.50  2.6207E-003  
  391.00  2.6132E-003  
  391.50  2.6209E-003  
  392.00  2.5963E-003  
  392.50  2.6359E-003  
  393.00  2.6975E-003  
  393.50  2.7757E-003  
  394.00  2.8983E-003  
  394.50  2.9708E-003  
  395.00  3.0064E-003  
  395.50  2.9642E-003  
  396.00  2.8791E-003  
  396.50  2.8288E-003  
  397.00  2.8531E-003  
  397.50  2.9515E-003  
  398.00  3.0492E-003  
  398.50  3.0960E-003  
  399.00  3.1098E-003  
  399.50  3.1140E-003  
  400.00  3.1144E-003  
  400.50  3.1747E-003  
  401.00  3.2501E-003  
  401.50  3.3041E-003  
  402.00  3.3515E-003  
  402.50  3.3304E-003  
  403.00  3.3565E-003  
  403.50  3.4012E-003  
  404.00  3.4356E-003  
  404.50  3.4834E-003  
  405.00  3.4702E-003  
  405.50  3.5403E-003  
  406.00  3.5980E-003  
  406.50  3.6314E-003  
  407.00  3.6850E-003  
  407.50  3.6388E-003  
  408.00  3.6472E-003  
  408.50  3.6538E-003  
  409.00  3.7289E-003  
  409.50  3.8055E-003  
  410.00  3.8579E-003  
  410.50  3.8535E-003  
  411.00  3.8235E-003  
  411.50  3.8500E-003  
  412.00  3.9311E-003  
  412.50  4.0535E-003  
  413.00  4.1506E-003  
  413.50  4.1940E-003  
  414.00  4.1854E-003  
  414.50  4.1630E-003  
  415.00  4.1455E-003  
  415.50  4.2151E-003  
  416.00  4.3080E-003  
  416.50  4.3610E-003  
  417.00  4.3472E-003  
  417.50  4.2878E-003  
  418.00  4.2781E-003  
  418.50  4.3418E-003  
  419.00  4.4159E-003  
  419.50  4.4471E-003  
  420.00  4.4417E-003  
  420.50  4.4995E-003  
  421.00  4.5767E-003  
  421.50  4.6790E-003  
  422.00  4.7610E-003  
  422.50  4.7979E-003  
  423.00  4.8288E-003  
  423.50  4.8157E-003  
  424.00  4.8006E-003  
  424.50  4.8128E-003  
  425.00  4.8916E-003  
  425.50  4.9517E-003  
  426.00  4.9663E-003  
  426.50  4.9283E-003  
  427.00  4.9278E-003  
  427.50  4.9715E-003  
  428.00  5.0925E-003  
  428.50  5.2076E-003  
  429.00  5.3012E-003  
  429.50  5.3687E-003  
  430.00  5.3905E-003  
  430.50  5.3757E-003  
  431.00  5.3280E-003  
  431.50  5.3094E-003  
  432.00  5.3351E-003  
  432.50  5.4273E-003  
  433.00  5.5211E-003  
  433.50  5.5609E-003  
  434.00  5.5365E-003  
  434.50  5.5439E-003  
  435.00  5.5941E-003  
  435.50  5.6654E-003  
  436.00  5.7576E-003  
  436.50  5.8415E-003  
  437.00  5.9536E-003  
  437.50  5.9842E-003  
  438.00  5.9503E-003  
  438.50  5.9093E-003  
  439.00  5.8995E-003  
  439.50  5.9585E-003  
  440.00  5.9495E-003  
  440.50  5.9960E-003  
  441.00  6.0494E-003  
  441.50  6.1175E-003  
  442.00  6.2284E-003  
  442.50  6.2145E-003  
  443.00  6.2581E-003  
  443.50  6.2802E-003  
  444.00  6.3284E-003  
  444.50  6.4712E-003  
  445.00  6.5854E-003  
  445.50  6.6656E-003  
  446.00  6.7144E-003  
  446.50  6.7221E-003  
  447.00  6.7127E-003  
  447.50  6.7294E-003  
  448.00  6.7648E-003  
  448.50  6.8257E-003  
  449.00  6.9207E-003  
  449.50  7.0047E-003  
  450.00  7.0654E-003  
  450.50  7.1250E-003  
  451.00  7.1587E-003  
  451.50  7.1939E-003  
  452.00  7.1940E-003  
  452.50  7.2211E-003  
  453.00  7.2500E-003  
  453.50  7.2909E-003  
  454.00  7.3895E-003  
  454.50  7.4419E-003  
  455.00  7.4508E-003  
  455.50  7.4868E-003  
  456.00  7.5021E-003  
  456.50  7.5632E-003  
  457.00  7.6402E-003  
  457.50  7.6575E-003  
  458.00  7.7246E-003  
  458.50  7.7226E-003  
  459.00  7.7296E-003  
  459.50  7.7689E-003  
  460.00  7.8327E-003  
  460.50  7.9346E-003  
  461.00  8.0308E-003  
  461.50  8.0667E-003  
  462.00  8.0968E-003  
  462.50  8.1073E-003  
  463.00  8.1367E-003  
  463.50  8.1954E-003  
  464.00  8.2666E-003  
  464.50  8.3210E-003  
  465.00  8.3683E-003  
  465.50  8.4001E-003  
  466.00  8.4519E-003  
  466.50  8.5198E-003  
  467.00  8.5727E-003  
  467.50  8.6164E-003  
  468.00  8.6398E-003  
  468.50  8.6866E-003  
  469.00  8.7741E-003  
  469.50  8.8681E-003  
  470.00  8.9058E-003  
  470.50  8.9051E-003  
  471.00  8.8850E-003  
  471.50  8.9275E-003  
  472.00  9.0111E-003  
  472.50  9.1335E-003  
  473.00  9.2191E-003  
  473.50  9.3065E-003  
  474.00  9.3957E-003  
  474.50  9.5021E-003  
  475.00  9.5752E-003  
  475.50  9.6420E-003  
  476.00  9.6459E-003  
  476.50  9.7188E-003  
  477.00  9.7538E-003  
  477.50  9.7902E-003  
  478.00  9.8006E-003  
  478.50  9.8441E-003  
  479.00  9.9080E-003  
  479.50  9.9720E-003  
  480.00  1.0021E-002  
  480.50  1.0055E-002  
  481.00  1.0094E-002  
  481.50  1.0132E-002  
  482.00  1.0223E-002  
  482.50  1.0298E-002  
  483.00  1.0391E-002  
  483.50  1.0484E-002  
  484.00  1.0560E-002  
  484.50  1.0597E-002  
  485.00  1.0593E-002  
  485.50  1.0590E-002  
  486.00  1.0651E-002  
  486.50  1.0719E-002  
  487.00  1.0810E-002  
  487.50  1.0839E-002  
  488.00  1.0892E-002  
  488.50  1.0950E-002  
  489.00  1.1025E-002  
  489.50  1.1096E-002  
  490.00  1.1136E-002  
  490.50  1.1181E-002  
  491.00  1.1210E-002  
  491.50  1.1266E-002  
  492.00  1.1340E-002  
  492.50  1.1421E-002  
  493.00  1.1545E-002  
  493.50  1.1617E-002  
  494.00  1.1679E-002  
  494.50  1.1760E-002  
  495.00  1.1816E-002  
  495.50  1.1921E-002  
  496.00  1.1946E-002  
  496.50  1.2017E-002  
  497.00  1.2085E-002  
  497.50  1.2161E-002  
  498.00  1.2261E-002  
  498.50  1.2325E-002  
  499.00  1.2381E-002  
  499.50  1.2408E-002  
  500.00  1.2427E-002  
  500.50  1.2463E-002  
  501.00  1.2549E-002  
  501.50  1.2662E-002  
  502.00  1.2751E-002  
  502.50  1.2852E-002  
  503.00  1.2938E-002  
  503.50  1.3041E-002  
  504.00  1.3160E-002  
  504.50  1.3264E-002  
  505.00  1.3365E-002  
  505.50  1.3456E-002  
  506.00  1.3522E-002  
  506.50  1.3569E-002  
  507.00  1.3611E-002  
  507.50  1.3646E-002  
  508.00  1.3721E-002  
  508.50  1.3804E-002  
  509.00  1.3913E-002  
  509.50  1.4049E-002  
  510.00  1.4184E-002  
  510.50  1.4308E-002  
  511.00  1.4389E-002  
  511.50  1.4437E-002  
  512.00  1.4500E-002  
  512.50  1.4606E-002  
  513.00  1.4743E-002  
  513.50  1.4884E-002  
  514.00  1.4987E-002  
  514.50  1.5075E-002  
  515.00  1.5176E-002  
  515.50  1.5265E-002  
  516.00  1.5339E-002  
  516.50  1.5420E-002  
  517.00  1.5487E-002  
  517.50  1.5576E-002  
  518.00  1.5700E-002  
  518.50  1.5863E-002  
  519.00  1.6018E-002  
  519.50  1.6100E-002  
  520.00  1.6160E-002  
  520.50  1.6229E-002  
  521.00  1.6335E-002  
  521.50  1.6449E-002  
  522.00  1.6592E-002  
  522.50  1.6739E-002  
  523.00  1.6873E-002  
  523.50  1.6966E-002  
  524.00  1.7061E-002  
  524.50  1.7132E-002  
  525.00  1.7236E-002  
  525.50  1.7338E-002  
  526.00  1.7454E-002  
  526.50  1.7526E-002  
  527.00  1.7575E-002  
  527.50  1.7634E-002  
  528.00  1.7764E-002  
  528.50  1.7902E-002  
  529.00  1.8023E-002  
  529.50  1.8118E-002  
  530.00  1.8210E-002  
  530.50  1.8303E-002  
  531.00  1.8444E-002  
  531.50  1.8574E-002  
  532.00  1.8712E-002  
  532.50  1.8826E-002  
  533.00  1.8893E-002  
  533.50  1.8973E-002  
  534.00  1.9040E-002  
  534.50  1.9119E-002  
  535.00  1.9223E-002  
  535.50  1.9324E-002  
  536.00  1.9394E-002  
  536.50  1.9469E-002  
  537.00  1.9571E-002  
  537.50  1.9693E-002  
  538.00  1.9861E-002  
  538.50  2.0018E-002  
  539.00  2.0171E-002  
  539.50  2.0293E-002  
  540.00  2.0365E-002  
  540.50  2.0447E-002  
  541.00  2.0523E-002  
  541.50  2.0637E-002  
  542.00  2.0751E-002  
  542.50  2.0814E-002  
  543.00  2.0916E-002  
  543.50  2.1015E-002  
  544.00  2.1172E-002  
  544.50  2.1320E-002  
  545.00  2.1407E-002  
  545.50  2.1499E-002  
  546.00  2.1554E-002  
  546.50  2.1588E-002  
  547.00  2.1687E-002  
  547.50  2.1764E-002  
  548.00  2.1892E-002  
  548.50  2.2004E-002  
  549.00  2.2148E-002  
  549.50  2.2229E-002  
  550.00  2.2285E-002  
  550.50  2.2357E-002  
  551.00  2.2427E-002  
  551.50  2.2540E-002  
  552.00  2.2614E-002  
  552.50  2.2754E-002  
  553.00  2.2906E-002  
  553.50  2.3022E-002  
  554.00  2.3086E-002  
  554.50  2.3162E-002  
  555.00  2.3268E-002  
  555.50  2.3423E-002  
  556.00  2.3513E-002  
  556.50  2.3580E-002  
  557.00  2.3669E-002  
  557.50  2.3829E-002  
  558.00  2.3958E-002  
  558.50  2.3999E-002  
  559.00  2.4038E-002  
  559.50  2.4161E-002  
  560.00  2.4326E-002  
  560.50  2.4508E-002  
  561.00  2.4600E-002  
  561.50  2.4741E-002  
  562.00  2.4823E-002  
  562.50  2.4884E-002  
  563.00  2.4873E-002  
  563.50  2.4899E-002  
  564.00  2.4968E-002  
  564.50  2.5096E-002  
  565.00  2.5278E-002  
  565.50  2.5475E-002  
  566.00  2.5624E-002  
  566.50  2.5714E-002  
  567.00  2.5724E-002  
  567.50  2.5727E-002  
  568.00  2.5756E-002  
  568.50  2.5779E-002  
  569.00  2.5827E-002  
  569.50  2.5934E-002  
  570.00  2.6002E-002  
  570.50  2.6059E-002  
  571.00  2.6092E-002  
  571.50  2.6184E-002  
  572.00  2.6342E-002  
  572.50  2.6420E-002  
  573.00  2.6495E-002  
  573.50  2.6572E-002  
  574.00  2.6694E-002  
  574.50  2.6823E-002  
  575.00  2.6898E-002  
  575.50  2.7000E-002  
  576.00  2.7074E-002  
  576.50  2.7184E-002  
  577.00  2.7247E-002  
  577.50  2.7303E-002  
  578.00  2.7276E-002  
  578.50  2.7301E-002  
  579.00  2.7338E-002  
  579.50  2.7423E-002  
  580.00  2.7482E-002  
  580.50  2.7557E-002  
  581.00  2.7685E-002  
  581.50  2.7846E-002  
  582.00  2.7934E-002  
  582.50  2.7981E-002  
  583.00  2.7970E-002  
  583.50  2.8035E-002  
  584.00  2.8125E-002  
  584.50  2.8288E-002  
  585.00  2.8465E-002  
  585.50  2.8578E-002  
  586.00  2.8633E-002  
  586.50  2.8642E-002  
  587.00  2.8609E-002  
  587.50  2.8606E-002  
  588.00  2.8644E-002  
  588.50  2.8802E-002  
  589.00  2.8934E-002  
  589.50  2.9008E-002  
  590.00  2.9052E-002  
  590.50  2.9103E-002  
  591.00  2.9132E-002  
  591.50  2.9199E-002  
  592.00  2.9264E-002  
  592.50  2.9357E-002  
  593.00  2.9380E-002  
  593.50  2.9374E-002  
  594.00  2.9449E-002  
  594.50  2.9591E-002  
  595.00  2.9751E-002  
  595.50  2.9828E-002  
  596.00  2.9872E-002  
  596.50  2.9871E-002  
  597.00  2.9909E-002  
  597.50  2.9931E-002  
  598.00  2.9991E-002  
  598.50  3.0086E-002  
  599.00  3.0185E-002  
  599.50  3.0244E-002  
  600.00  3.0258E-002  
  600.50  3.0249E-002  
  601.00  3.0226E-002  
  601.50  3.0238E-002  
  602.00  3.0263E-002  
  602.50  3.0404E-002  
  603.00  3.0511E-002  
  603.50  3.0615E-002  
  604.00  3.0669E-002  
  604.50  3.0766E-002  
  605.00  3.0846E-002  
  605.50  3.0851E-002  
  606.00  3.0763E-002  
  606.50  3.0750E-002  
  607.00  3.0891E-002  
  607.50  3.1094E-002  
  608.00  3.1271E-002  
  608.50  3.1322E-002  
  609.00  3.1272E-002  
  609.50  3.1251E-002  
  610.00  3.1279E-002  
  610.50  3.1361E-002  
  611.00  3.1422E-002  
  611.50  3.1428E-002  
  612.00  3.1429E-002  
  612.50  3.1392E-002  
  613.00  3.1413E-002  
  613.50  3.1451E-002  
  614.00  3.1575E-002  
  614.50  3.1702E-002  
  615.00  3.1847E-002  
  615.50  3.1914E-002  
  616.00  3.1894E-002  
  616.50  3.1831E-002  
  617.00  3.1892E-002  
  617.50  3.1987E-002  
  618.00  3.2074E-002  
  618.50  3.2073E-002  
  619.00  3.2076E-002  
  619.50  3.2119E-002  
  620.00  3.2111E-002  
  620.50  3.2071E-002  
  621.00  3.2061E-002  
  621.50  3.2139E-002  
  622.00  3.2248E-002  
  622.50  3.2359E-002  
  623.00  3.2383E-002  
  623.50  3.2397E-002  
  624.00  3.2423E-002  
  624.50  3.2526E-002  
  625.00  3.2672E-002  
  625.50  3.2828E-002  
  626.00  3.2891E-002  
  626.50  3.2870E-002  
  627.00  3.2823E-002  
  627.50  3.2768E-002  
  628.00  3.2752E-002  
  628.50  3.2715E-002  
  629.00  3.2765E-002  
  629.50  3.2878E-002  
  630.00  3.2947E-002  
  630.50  3.2994E-002  
  631.00  3.3031E-002  
  631.50  3.3143E-002  
  632.00  3.3239E-002  
  632.50  3.3255E-002  
  633.00  3.3258E-002  
  633.50  3.3337E-002  
  634.00  3.3476E-002  
  634.50  3.3488E-002  
  635.00  3.3452E-002  
  635.50  3.3400E-002  
  636.00  3.3463E-002  
  636.50  3.3515E-002  
  637.00  3.3584E-002  
  637.50  3.3675E-002  
  638.00  3.3813E-002  
  638.50  3.3824E-002  
  639.00  3.3714E-002  
  639.50  3.3638E-002  
  640.00  3.3636E-002  
  640.50  3.3760E-002  
  641.00  3.3742E-002  
  641.50  3.3776E-002  
  642.00  3.3829E-002  
  642.50  3.3937E-002  
  643.00  3.4031E-002  
  643.50  3.4037E-002  
  644.00  3.4078E-002  
  644.50  3.4107E-002  
  645.00  3.4107E-002  
  645.50  3.4129E-002  
  646.00  3.4181E-002  
  646.50  3.4217E-002  
  647.00  3.4213E-002  
  647.50  3.4186E-002  
  648.00  3.4293E-002  
  648.50  3.4351E-002  
  649.00  3.4411E-002  
  649.50  3.4383E-002  
  650.00  3.4372E-002  
  650.50  3.4291E-002  
  651.00  3.4287E-002  
  651.50  3.4324E-002  
  652.00  3.4441E-002  
  652.50  3.4546E-002  
  653.00  3.4612E-002  
  653.50  3.4575E-002  
  654.00  3.4646E-002  
  654.50  3.4677E-002  
  655.00  3.4742E-002  
  655.50  3.4761E-002  
  656.00  3.4832E-002  
  656.50  3.4922E-002  
  657.00  3.4881E-002  
  657.50  3.4783E-002  
  658.00  3.4670E-002  
  658.50  3.4718E-002  
  659.00  3.4929E-002  
  659.50  3.5073E-002  
  660.00  3.5096E-002  
  660.50  3.4978E-002  
  661.00  3.4965E-002  
  661.50  3.5062E-002  
  662.00  3.5044E-002  
  662.50  3.5002E-002  
  663.00  3.4962E-002  
  663.50  3.5045E-002  
  664.00  3.5144E-002  
  664.50  3.5175E-002  
  665.00  3.5224E-002  
  665.50  3.5193E-002  
  666.00  3.5210E-002  
  666.50  3.5240E-002  
  667.00  3.5333E-002  
  667.50  3.5401E-002  
  668.00  3.5398E-002  
  668.50  3.5365E-002  
  669.00  3.5278E-002  
  669.50  3.5274E-002  
  670.00  3.5348E-002  
  670.50  3.5387E-002  
  671.00  3.5450E-002  
  671.50  3.5399E-002  
  672.00  3.5427E-002  
  672.50  3.5463E-002  
  673.00  3.5529E-002  
  673.50  3.5608E-002  
  674.00  3.5630E-002  
  674.50  3.5680E-002  
  675.00  3.5526E-002  
  675.50  3.5414E-002  
  676.00  3.5362E-002  
  676.50  3.5534E-002  
  677.00  3.5709E-002  
  677.50  3.5719E-002  
  678.00  3.5612E-002  
  678.50  3.5495E-002  
  679.00  3.5505E-002  
  679.50  3.5678E-002  
  680.00  3.5781E-002  
