
# From lspdd.org
# 
# Name: DEL Philips BR30 Domestique
# Indice spectral Valeur 
# MSI 0.28 
# SLI 0.49 
# IPI 0.68 
# Pourcentage de bleu 18.1 
# Caractéristique Valeur 
# CCT calculée (K) 2694 
# CCT du fabricant (K) 2700 
# Tension (V) 120 
# Puissance (W) 9.5 
# Efficacité lumineuse (Lum/W) 68.0 
#
# Image: '/app/system/img_2s/2631/medium_image2.JPG?1423776208'
# Image: '/app/system/img_1s/2631/medium_image1.JPG?1423776205'
# 

  273.00  0.0000E+000  
  273.50  0.0000E+000  
  274.00  0.0000E+000  
  274.50  0.0000E+000  
  275.00  0.0000E+000  
  275.50  0.0000E+000  
  276.00  0.0000E+000  
  276.50  0.0000E+000  
  277.00  0.0000E+000  
  277.50  0.0000E+000  
  278.00  0.0000E+000  
  278.50  0.0000E+000  
  279.00  0.0000E+000  
  279.50  0.0000E+000  
  280.00  0.0000E+000  
  280.50  0.0000E+000  
  281.00  0.0000E+000  
  281.50  0.0000E+000  
  282.00  0.0000E+000  
  282.50  0.0000E+000  
  283.00  0.0000E+000  
  283.50  0.0000E+000  
  284.00  0.0000E+000  
  284.50  0.0000E+000  
  285.00  0.0000E+000  
  285.50  0.0000E+000  
  286.00  0.0000E+000  
  286.50  0.0000E+000  
  287.00  0.0000E+000  
  287.50  0.0000E+000  
  288.00  0.0000E+000  
  288.50  0.0000E+000  
  289.00  0.0000E+000  
  289.50  0.0000E+000  
  290.00  0.0000E+000  
  290.50  0.0000E+000  
  291.00  0.0000E+000  
  291.50  0.0000E+000  
  292.00  0.0000E+000  
  292.50  0.0000E+000  
  293.00  0.0000E+000  
  293.50  0.0000E+000  
  294.00  0.0000E+000  
  294.50  0.0000E+000  
  295.00  0.0000E+000  
  295.50  0.0000E+000  
  296.00  0.0000E+000  
  296.50  0.0000E+000  
  297.00  0.0000E+000  
  297.50  0.0000E+000  
  298.00  0.0000E+000  
  298.50  0.0000E+000  
  299.00  0.0000E+000  
  299.50  0.0000E+000  
  300.00  2.5567E-005  
  300.50  6.6110E-005  
  301.00  6.0077E-005  
  301.50  4.6138E-005  
  302.00  4.5950E-005  
  302.50  5.1072E-006  
  303.00  0.0000E+000  
  303.50  0.0000E+000  
  304.00  0.0000E+000  
  304.50  0.0000E+000  
  305.00  0.0000E+000  
  305.50  1.8997E-005  
  306.00  7.5604E-005  
  306.50  1.1832E-004  
  307.00  1.4274E-004  
  307.50  5.3391E-005  
  308.00  0.0000E+000  
  308.50  0.0000E+000  
  309.00  0.0000E+000  
  309.50  0.0000E+000  
  310.00  0.0000E+000  
  310.50  0.0000E+000  
  311.00  4.3669E-007  
  311.50  2.1115E-005  
  312.00  7.3490E-005  
  312.50  7.7345E-005  
  313.00  1.4847E-004  
  313.50  1.7251E-004  
  314.00  1.1975E-004  
  314.50  1.0890E-004  
  315.00  7.6138E-005  
  315.50  7.1995E-005  
  316.00  9.8700E-006  
  316.50  0.0000E+000  
  317.00  0.0000E+000  
  317.50  0.0000E+000  
  318.00  0.0000E+000  
  318.50  0.0000E+000  
  319.00  0.0000E+000  
  319.50  0.0000E+000  
  320.00  2.4126E-006  
  320.50  5.6783E-005  
  321.00  1.9308E-005  
  321.50  4.9531E-007  
  322.00  0.0000E+000  
  322.50  0.0000E+000  
  323.00  0.0000E+000  
  323.50  0.0000E+000  
  324.00  0.0000E+000  
  324.50  0.0000E+000  
  325.00  0.0000E+000  
  325.50  0.0000E+000  
  326.00  4.0940E-006  
  326.50  2.8198E-005  
  327.00  6.2769E-005  
  327.50  3.2946E-005  
  328.00  1.1956E-006  
  328.50  0.0000E+000  
  329.00  0.0000E+000  
  329.50  5.6224E-006  
  330.00  9.6598E-005  
  330.50  9.4359E-005  
  331.00  4.5229E-005  
  331.50  0.0000E+000  
  332.00  0.0000E+000  
  332.50  0.0000E+000  
  333.00  0.0000E+000  
  333.50  1.1124E-005  
  334.00  5.0780E-005  
  334.50  8.1630E-005  
  335.00  9.2618E-005  
  335.50  4.4106E-005  
  336.00  0.0000E+000  
  336.50  0.0000E+000  
  337.00  0.0000E+000  
  337.50  0.0000E+000  
  338.00  3.9086E-005  
  338.50  6.5577E-005  
  339.00  1.1096E-004  
  339.50  4.3282E-005  
  340.00  0.0000E+000  
  340.50  0.0000E+000  
  341.00  0.0000E+000  
  341.50  0.0000E+000  
  342.00  0.0000E+000  
  342.50  0.0000E+000  
  343.00  0.0000E+000  
  343.50  0.0000E+000  
  344.00  0.0000E+000  
  344.50  0.0000E+000  
  345.00  1.7825E-005  
  345.50  0.0000E+000  
  346.00  1.4367E-005  
  346.50  3.1890E-005  
  347.00  4.1908E-005  
  347.50  1.2447E-004  
  348.00  1.6000E-004  
  348.50  2.1159E-004  
  349.00  2.1828E-004  
  349.50  1.9271E-004  
  350.00  1.5589E-004  
  350.50  1.3862E-004  
  351.00  1.2131E-004  
  351.50  1.0843E-004  
  352.00  3.0807E-005  
  352.50  0.0000E+000  
  353.00  0.0000E+000  
  353.50  0.0000E+000  
  354.00  0.0000E+000  
  354.50  0.0000E+000  
  355.00  0.0000E+000  
  355.50  0.0000E+000  
  356.00  0.0000E+000  
  356.50  9.4161E-006  
  357.00  0.0000E+000  
  357.50  0.0000E+000  
  358.00  0.0000E+000  
  358.50  0.0000E+000  
  359.00  0.0000E+000  
  359.50  0.0000E+000  
  360.00  1.0686E-005  
  360.50  4.6346E-005  
  361.00  6.4598E-005  
  361.50  7.9445E-005  
  362.00  9.5493E-005  
  362.50  9.8755E-005  
  363.00  8.2815E-005  
  363.50  4.8602E-005  
  364.00  3.3879E-005  
  364.50  3.7458E-007  
  365.00  3.1588E-006  
  365.50  7.5293E-006  
  366.00  1.1419E-005  
  366.50  4.6041E-005  
  367.00  7.3698E-005  
  367.50  6.0057E-005  
  368.00  7.5398E-005  
  368.50  3.9998E-005  
  369.00  4.6452E-006  
  369.50  0.0000E+000  
  370.00  0.0000E+000  
  370.50  0.0000E+000  
  371.00  0.0000E+000  
  371.50  0.0000E+000  
  372.00  0.0000E+000  
  372.50  0.0000E+000  
  373.00  0.0000E+000  
  373.50  1.4161E-005  
  374.00  5.2916E-005  
  374.50  4.8228E-005  
  375.00  4.8163E-005  
  375.50  4.8566E-006  
  376.00  0.0000E+000  
  376.50  0.0000E+000  
  377.00  0.0000E+000  
  377.50  0.0000E+000  
  378.00  0.0000E+000  
  378.50  0.0000E+000  
  379.00  0.0000E+000  
  379.50  0.0000E+000  
  380.00  0.0000E+000  
  380.50  0.0000E+000  
  381.00  0.0000E+000  
  381.50  0.0000E+000  
  382.00  5.4584E-005  
  382.50  1.1590E-004  
  383.00  1.2657E-004  
  383.50  8.8016E-005  
  384.00  4.6716E-005  
  384.50  3.3376E-005  
  385.00  2.8656E-005  
  385.50  9.1984E-006  
  386.00  0.0000E+000  
  386.50  0.0000E+000  
  387.00  0.0000E+000  
  387.50  0.0000E+000  
  388.00  9.3395E-006  
  388.50  2.0211E-005  
  389.00  6.4697E-006  
  389.50  0.0000E+000  
  390.00  0.0000E+000  
  390.50  0.0000E+000  
  391.00  0.0000E+000  
  391.50  3.8771E-005  
  392.00  8.6416E-005  
  392.50  9.8878E-005  
  393.00  7.5331E-005  
  393.50  7.9063E-005  
  394.00  5.6970E-005  
  394.50  0.0000E+000  
  395.00  0.0000E+000  
  395.50  0.0000E+000  
  396.00  0.0000E+000  
  396.50  0.0000E+000  
  397.00  0.0000E+000  
  397.50  4.7640E-006  
  398.00  1.4668E-005  
  398.50  8.0433E-006  
  399.00  3.5683E-005  
  399.50  4.6622E-005  
  400.00  6.2393E-005  
  400.50  7.5127E-005  
  401.00  4.9275E-005  
  401.50  2.5387E-005  
  402.00  4.0680E-005  
  402.50  3.0029E-005  
  403.00  1.6728E-006  
  403.50  0.0000E+000  
  404.00  0.0000E+000  
  404.50  0.0000E+000  
  405.00  0.0000E+000  
  405.50  8.0528E-005  
  406.00  1.4186E-004  
  406.50  1.8108E-004  
  407.00  1.1705E-004  
  407.50  1.0448E-004  
  408.00  9.0788E-005  
  408.50  5.9483E-005  
  409.00  7.7366E-005  
  409.50  7.0905E-005  
  410.00  6.8176E-005  
  410.50  3.2685E-005  
  411.00  1.8232E-006  
  411.50  2.0753E-006  
  412.00  2.7868E-005  
  412.50  4.3854E-005  
  413.00  7.8125E-005  
  413.50  1.4781E-004  
  414.00  2.1635E-004  
  414.50  2.5682E-004  
  415.00  2.3156E-004  
  415.50  1.9199E-004  
  416.00  1.2636E-004  
  416.50  1.0281E-004  
  417.00  1.3077E-004  
  417.50  1.1529E-004  
  418.00  1.3756E-004  
  418.50  1.6222E-004  
  419.00  1.7679E-004  
  419.50  2.2522E-004  
  420.00  2.4179E-004  
  420.50  2.2400E-004  
  421.00  2.1624E-004  
  421.50  2.2599E-004  
  422.00  2.5532E-004  
  422.50  2.7190E-004  
  423.00  3.0395E-004  
  423.50  2.9737E-004  
  424.00  3.2716E-004  
  424.50  3.3838E-004  
  425.00  3.5220E-004  
  425.50  4.2609E-004  
  426.00  4.8439E-004  
  426.50  5.7923E-004  
  427.00  5.9486E-004  
  427.50  6.1525E-004  
  428.00  6.0606E-004  
  428.50  6.6039E-004  
  429.00  7.2172E-004  
  429.50  7.5958E-004  
  430.00  7.7672E-004  
  430.50  7.7686E-004  
  431.00  7.6573E-004  
  431.50  7.9091E-004  
  432.00  8.2802E-004  
  432.50  8.6378E-004  
  433.00  9.0889E-004  
  433.50  9.5826E-004  
  434.00  1.0108E-003  
  434.50  1.0680E-003  
  435.00  1.1428E-003  
  435.50  1.1932E-003  
  436.00  1.2392E-003  
  436.50  1.2739E-003  
  437.00  1.2974E-003  
  437.50  1.3896E-003  
  438.00  1.4917E-003  
  438.50  1.6308E-003  
  439.00  1.7257E-003  
  439.50  1.8514E-003  
  440.00  1.9703E-003  
  440.50  2.1327E-003  
  441.00  2.2837E-003  
  441.50  2.3556E-003  
  442.00  2.3811E-003  
  442.50  2.4698E-003  
  443.00  2.6035E-003  
  443.50  2.8319E-003  
  444.00  3.0075E-003  
  444.50  3.1591E-003  
  445.00  3.3134E-003  
  445.50  3.4379E-003  
  446.00  3.5509E-003  
  446.50  3.7215E-003  
  447.00  3.9640E-003  
  447.50  4.3197E-003  
  448.00  4.5974E-003  
  448.50  4.8248E-003  
  449.00  4.9966E-003  
  449.50  5.1906E-003  
  450.00  5.4625E-003  
  450.50  5.7681E-003  
  451.00  6.0559E-003  
  451.50  6.2985E-003  
  452.00  6.4967E-003  
  452.50  6.6778E-003  
  453.00  6.9075E-003  
  453.50  7.1501E-003  
  454.00  7.4224E-003  
  454.50  7.6448E-003  
  455.00  7.8408E-003  
  455.50  8.0149E-003  
  456.00  8.1345E-003  
  456.50  8.2248E-003  
  457.00  8.2565E-003  
  457.50  8.2237E-003  
  458.00  8.1909E-003  
  458.50  8.1936E-003  
  459.00  8.1645E-003  
  459.50  8.0617E-003  
  460.00  7.8800E-003  
  460.50  7.6888E-003  
  461.00  7.5581E-003  
  461.50  7.4479E-003  
  462.00  7.3363E-003  
  462.50  7.1737E-003  
  463.00  7.0572E-003  
  463.50  6.8828E-003  
  464.00  6.7469E-003  
  464.50  6.5944E-003  
  465.00  6.4763E-003  
  465.50  6.3369E-003  
  466.00  6.2421E-003  
  466.50  6.1543E-003  
  467.00  6.1230E-003  
  467.50  6.1190E-003  
  468.00  6.0948E-003  
  468.50  6.0725E-003  
  469.00  5.9797E-003  
  469.50  5.8880E-003  
  470.00  5.7376E-003  
  470.50  5.6930E-003  
  471.00  5.6482E-003  
  471.50  5.5772E-003  
  472.00  5.5070E-003  
  472.50  5.4373E-003  
  473.00  5.4309E-003  
  473.50  5.4334E-003  
  474.00  5.4282E-003  
  474.50  5.4013E-003  
  475.00  5.3846E-003  
  475.50  5.3367E-003  
  476.00  5.1749E-003  
  476.50  5.0317E-003  
  477.00  4.9187E-003  
  477.50  4.8647E-003  
  478.00  4.8755E-003  
  478.50  4.8347E-003  
  479.00  4.7080E-003  
  479.50  4.6098E-003  
  480.00  4.5102E-003  
  480.50  4.4484E-003  
  481.00  4.4376E-003  
  481.50  4.4058E-003  
  482.00  4.3640E-003  
  482.50  4.2936E-003  
  483.00  4.2309E-003  
  483.50  4.1994E-003  
  484.00  4.2433E-003  
  484.50  4.2637E-003  
  485.00  4.2380E-003  
  485.50  4.2259E-003  
  486.00  4.2230E-003  
  486.50  4.2268E-003  
  487.00  4.2455E-003  
  487.50  4.2418E-003  
  488.00  4.2629E-003  
  488.50  4.2976E-003  
  489.00  4.2989E-003  
  489.50  4.2843E-003  
  490.00  4.2510E-003  
  490.50  4.2453E-003  
  491.00  4.2755E-003  
  491.50  4.3482E-003  
  492.00  4.4338E-003  
  492.50  4.4700E-003  
  493.00  4.4781E-003  
  493.50  4.4857E-003  
  494.00  4.4995E-003  
  494.50  4.5108E-003  
  495.00  4.5231E-003  
  495.50  4.5446E-003  
  496.00  4.5833E-003  
  496.50  4.5979E-003  
  497.00  4.6471E-003  
  497.50  4.6932E-003  
  498.00  4.7599E-003  
  498.50  4.8077E-003  
  499.00  4.8391E-003  
  499.50  4.8629E-003  
  500.00  4.9086E-003  
  500.50  4.9408E-003  
  501.00  4.9860E-003  
  501.50  5.0455E-003  
  502.00  5.1097E-003  
  502.50  5.1753E-003  
  503.00  5.2381E-003  
  503.50  5.2901E-003  
  504.00  5.3744E-003  
  504.50  5.4244E-003  
  505.00  5.4185E-003  
  505.50  5.4211E-003  
  506.00  5.4566E-003  
  506.50  5.5259E-003  
  507.00  5.5963E-003  
  507.50  5.6684E-003  
  508.00  5.6910E-003  
  508.50  5.7236E-003  
  509.00  5.7547E-003  
  509.50  5.8251E-003  
  510.00  5.9266E-003  
  510.50  6.0190E-003  
  511.00  6.0775E-003  
  511.50  6.1244E-003  
  512.00  6.1557E-003  
  512.50  6.2043E-003  
  513.00  6.2835E-003  
  513.50  6.3832E-003  
  514.00  6.4928E-003  
  514.50  6.5706E-003  
  515.00  6.6073E-003  
  515.50  6.6291E-003  
  516.00  6.6343E-003  
  516.50  6.6780E-003  
  517.00  6.7203E-003  
  517.50  6.7813E-003  
  518.00  6.8483E-003  
  518.50  6.8968E-003  
  519.00  6.9343E-003  
  519.50  6.9771E-003  
  520.00  7.0277E-003  
  520.50  7.0649E-003  
  521.00  7.1123E-003  
  521.50  7.1744E-003  
  522.00  7.2567E-003  
  522.50  7.3622E-003  
  523.00  7.4348E-003  
  523.50  7.5142E-003  
  524.00  7.5871E-003  
  524.50  7.6382E-003  
  525.00  7.6935E-003  
  525.50  7.7519E-003  
  526.00  7.8462E-003  
  526.50  7.9226E-003  
  527.00  7.9835E-003  
  527.50  8.0227E-003  
  528.00  8.1010E-003  
  528.50  8.1495E-003  
  529.00  8.2076E-003  
  529.50  8.2442E-003  
  530.00  8.3037E-003  
  530.50  8.3898E-003  
  531.00  8.4370E-003  
  531.50  8.4854E-003  
  532.00  8.5353E-003  
  532.50  8.5980E-003  
  533.00  8.6883E-003  
  533.50  8.7689E-003  
  534.00  8.8627E-003  
  534.50  8.9683E-003  
  535.00  9.0635E-003  
  535.50  9.1633E-003  
  536.00  9.2523E-003  
  536.50  9.3649E-003  
  537.00  9.4272E-003  
  537.50  9.4812E-003  
  538.00  9.5010E-003  
  538.50  9.5643E-003  
  539.00  9.6732E-003  
  539.50  9.7886E-003  
  540.00  9.8832E-003  
  540.50  9.9735E-003  
  541.00  1.0027E-002  
  541.50  1.0104E-002  
  542.00  1.0172E-002  
  542.50  1.0242E-002  
  543.00  1.0335E-002  
  543.50  1.0396E-002  
  544.00  1.0483E-002  
  544.50  1.0572E-002  
  545.00  1.0664E-002  
  545.50  1.0789E-002  
  546.00  1.0901E-002  
  546.50  1.1009E-002  
  547.00  1.1055E-002  
  547.50  1.1096E-002  
  548.00  1.1150E-002  
  548.50  1.1281E-002  
  549.00  1.1456E-002  
  549.50  1.1598E-002  
  550.00  1.1673E-002  
  550.50  1.1722E-002  
  551.00  1.1791E-002  
  551.50  1.1916E-002  
  552.00  1.2051E-002  
  552.50  1.2162E-002  
  553.00  1.2233E-002  
  553.50  1.2303E-002  
  554.00  1.2402E-002  
  554.50  1.2505E-002  
  555.00  1.2622E-002  
  555.50  1.2668E-002  
  556.00  1.2724E-002  
  556.50  1.2822E-002  
  557.00  1.2958E-002  
  557.50  1.3109E-002  
  558.00  1.3258E-002  
  558.50  1.3378E-002  
  559.00  1.3493E-002  
  559.50  1.3597E-002  
  560.00  1.3734E-002  
  560.50  1.3827E-002  
  561.00  1.3916E-002  
  561.50  1.3974E-002  
  562.00  1.4042E-002  
  562.50  1.4169E-002  
  563.00  1.4282E-002  
  563.50  1.4419E-002  
  564.00  1.4525E-002  
  564.50  1.4648E-002  
  565.00  1.4746E-002  
  565.50  1.4839E-002  
  566.00  1.4912E-002  
  566.50  1.5016E-002  
  567.00  1.5084E-002  
  567.50  1.5171E-002  
  568.00  1.5197E-002  
  568.50  1.5303E-002  
  569.00  1.5433E-002  
  569.50  1.5574E-002  
  570.00  1.5726E-002  
  570.50  1.5873E-002  
  571.00  1.6013E-002  
  571.50  1.6107E-002  
  572.00  1.6147E-002  
  572.50  1.6218E-002  
  573.00  1.6311E-002  
  573.50  1.6433E-002  
  574.00  1.6547E-002  
  574.50  1.6633E-002  
  575.00  1.6763E-002  
  575.50  1.6875E-002  
  576.00  1.7005E-002  
  576.50  1.7131E-002  
  577.00  1.7235E-002  
  577.50  1.7347E-002  
  578.00  1.7425E-002  
  578.50  1.7503E-002  
  579.00  1.7541E-002  
  579.50  1.7564E-002  
  580.00  1.7637E-002  
  580.50  1.7772E-002  
  581.00  1.7953E-002  
  581.50  1.8084E-002  
  582.00  1.8187E-002  
  582.50  1.8249E-002  
  583.00  1.8302E-002  
  583.50  1.8406E-002  
  584.00  1.8486E-002  
  584.50  1.8611E-002  
  585.00  1.8700E-002  
  585.50  1.8821E-002  
  586.00  1.8841E-002  
  586.50  1.8873E-002  
  587.00  1.8926E-002  
  587.50  1.9052E-002  
  588.00  1.9177E-002  
  588.50  1.9233E-002  
  589.00  1.9311E-002  
  589.50  1.9400E-002  
  590.00  1.9506E-002  
  590.50  1.9638E-002  
  591.00  1.9758E-002  
  591.50  1.9792E-002  
  592.00  1.9744E-002  
  592.50  1.9714E-002  
  593.00  1.9750E-002  
  593.50  1.9833E-002  
  594.00  1.9919E-002  
  594.50  2.0011E-002  
  595.00  2.0084E-002  
  595.50  2.0164E-002  
  596.00  2.0204E-002  
  596.50  2.0208E-002  
  597.00  2.0153E-002  
  597.50  2.0123E-002  
  598.00  2.0174E-002  
  598.50  2.0276E-002  
  599.00  2.0317E-002  
  599.50  2.0312E-002  
  600.00  2.0335E-002  
  600.50  2.0334E-002  
  601.00  2.0325E-002  
  601.50  2.0280E-002  
  602.00  2.0334E-002  
  602.50  2.0422E-002  
  603.00  2.0468E-002  
  603.50  2.0438E-002  
  604.00  2.0358E-002  
  604.50  2.0336E-002  
  605.00  2.0369E-002  
  605.50  2.0402E-002  
  606.00  2.0416E-002  
  606.50  2.0398E-002  
  607.00  2.0387E-002  
  607.50  2.0384E-002  
  608.00  2.0408E-002  
  608.50  2.0416E-002  
  609.00  2.0423E-002  
  609.50  2.0398E-002  
  610.00  2.0395E-002  
  610.50  2.0377E-002  
  611.00  2.0340E-002  
  611.50  2.0297E-002  
  612.00  2.0358E-002  
  612.50  2.0379E-002  
  613.00  2.0413E-002  
  613.50  2.0331E-002  
  614.00  2.0248E-002  
  614.50  2.0164E-002  
  615.00  2.0083E-002  
  615.50  1.9987E-002  
  616.00  1.9932E-002  
  616.50  1.9875E-002  
  617.00  1.9895E-002  
  617.50  1.9878E-002  
  618.00  1.9777E-002  
  618.50  1.9707E-002  
  619.00  1.9559E-002  
  619.50  1.9464E-002  
  620.00  1.9363E-002  
  620.50  1.9297E-002  
  621.00  1.9186E-002  
  621.50  1.9053E-002  
  622.00  1.8965E-002  
  622.50  1.8974E-002  
  623.00  1.8990E-002  
  623.50  1.8952E-002  
  624.00  1.8915E-002  
  624.50  1.8810E-002  
  625.00  1.8707E-002  
  625.50  1.8580E-002  
  626.00  1.8471E-002  
  626.50  1.8370E-002  
  627.00  1.8299E-002  
  627.50  1.8282E-002  
  628.00  1.8214E-002  
  628.50  1.8040E-002  
  629.00  1.7862E-002  
  629.50  1.7666E-002  
  630.00  1.7613E-002  
  630.50  1.7531E-002  
  631.00  1.7462E-002  
  631.50  1.7339E-002  
  632.00  1.7211E-002  
  632.50  1.7175E-002  
  633.00  1.7166E-002  
  633.50  1.7185E-002  
  634.00  1.7143E-002  
  634.50  1.7003E-002  
  635.00  1.6859E-002  
  635.50  1.6657E-002  
  636.00  1.6556E-002  
  636.50  1.6418E-002  
  637.00  1.6322E-002  
  637.50  1.6166E-002  
  638.00  1.5978E-002  
  638.50  1.5786E-002  
  639.00  1.5707E-002  
  639.50  1.5690E-002  
  640.00  1.5628E-002  
  640.50  1.5491E-002  
  641.00  1.5305E-002  
  641.50  1.5127E-002  
  642.00  1.4988E-002  
  642.50  1.4899E-002  
  643.00  1.4892E-002  
  643.50  1.4831E-002  
  644.00  1.4745E-002  
  644.50  1.4559E-002  
  645.00  1.4426E-002  
  645.50  1.4259E-002  
  646.00  1.4173E-002  
  646.50  1.4077E-002  
  647.00  1.3943E-002  
  647.50  1.3786E-002  
  648.00  1.3596E-002  
  648.50  1.3404E-002  
  649.00  1.3327E-002  
  649.50  1.3286E-002  
  650.00  1.3289E-002  
  650.50  1.3128E-002  
  651.00  1.2922E-002  
  651.50  1.2789E-002  
  652.00  1.2715E-002  
  652.50  1.2601E-002  
  653.00  1.2425E-002  
  653.50  1.2244E-002  
  654.00  1.2140E-002  
  654.50  1.2011E-002  
  655.00  1.1855E-002  
  655.50  1.1707E-002  
  656.00  1.1615E-002  
  656.50  1.1513E-002  
  657.00  1.1387E-002  
  657.50  1.1267E-002  
  658.00  1.1179E-002  
  658.50  1.1105E-002  
  659.00  1.0993E-002  
  659.50  1.0856E-002  
  660.00  1.0726E-002  
  660.50  1.0625E-002  
  661.00  1.0580E-002  
  661.50  1.0482E-002  
  662.00  1.0331E-002  
  662.50  1.0221E-002  
  663.00  1.0102E-002  
  663.50  9.9708E-003  
  664.00  9.7555E-003  
  664.50  9.5761E-003  
  665.00  9.4514E-003  
  665.50  9.3790E-003  
  666.00  9.3292E-003  
  666.50  9.2807E-003  
  667.00  9.2881E-003  
  667.50  9.2308E-003  
  668.00  9.1214E-003  
  668.50  8.9025E-003  
  669.00  8.7432E-003  
  669.50  8.6158E-003  
  670.00  8.5015E-003  
  670.50  8.3583E-003  
  671.00  8.2911E-003  
  671.50  8.2387E-003  
  672.00  8.1750E-003  
  672.50  8.0069E-003  
  673.00  7.8735E-003  
  673.50  7.8016E-003  
  674.00  7.7070E-003  
  674.50  7.6329E-003  
  675.00  7.5312E-003  
  675.50  7.4834E-003  
  676.00  7.3269E-003  
  676.50  7.2699E-003  
  677.00  7.2257E-003  
  677.50  7.1929E-003  
  678.00  7.0260E-003  
  678.50  6.8589E-003  
  679.00  6.7802E-003  
  679.50  6.7930E-003  
  680.00  6.7251E-003  
