
# From lspdd.org
# 
# Name: DEL TCP MR16 Domestique
# Indice spectral Valeur 
# MSI 0.29 
# SLI 0.48 
# IPI 0.68 
# Pourcentage de bleu 18.0 
# Caractéristique Valeur 
# CCT calculée (K) 2735 
# CCT du fabricant (K) 2700 
# Tension (V) 120 
# Puissance (W) 7.0 
# Efficacité lumineuse (Lum/W) 71.0 
#
# Image: '/app/system/img_2s/2632/medium_image2.JPG?1423776216'
# Image: '/app/system/img_1s/2632/medium_image1.JPG?1423776212'
# 

  273.00  0.0000E+000  
  273.50  0.0000E+000  
  274.00  0.0000E+000  
  274.50  0.0000E+000  
  275.00  0.0000E+000  
  275.50  0.0000E+000  
  276.00  0.0000E+000  
  276.50  0.0000E+000  
  277.00  0.0000E+000  
  277.50  0.0000E+000  
  278.00  0.0000E+000  
  278.50  0.0000E+000  
  279.00  0.0000E+000  
  279.50  0.0000E+000  
  280.00  0.0000E+000  
  280.50  0.0000E+000  
  281.00  0.0000E+000  
  281.50  0.0000E+000  
  282.00  0.0000E+000  
  282.50  0.0000E+000  
  283.00  0.0000E+000  
  283.50  0.0000E+000  
  284.00  0.0000E+000  
  284.50  0.0000E+000  
  285.00  0.0000E+000  
  285.50  0.0000E+000  
  286.00  0.0000E+000  
  286.50  0.0000E+000  
  287.00  0.0000E+000  
  287.50  0.0000E+000  
  288.00  0.0000E+000  
  288.50  0.0000E+000  
  289.00  0.0000E+000  
  289.50  0.0000E+000  
  290.00  0.0000E+000  
  290.50  0.0000E+000  
  291.00  0.0000E+000  
  291.50  0.0000E+000  
  292.00  0.0000E+000  
  292.50  0.0000E+000  
  293.00  0.0000E+000  
  293.50  0.0000E+000  
  294.00  0.0000E+000  
  294.50  0.0000E+000  
  295.00  0.0000E+000  
  295.50  0.0000E+000  
  296.00  0.0000E+000  
  296.50  0.0000E+000  
  297.00  0.0000E+000  
  297.50  0.0000E+000  
  298.00  0.0000E+000  
  298.50  0.0000E+000  
  299.00  0.0000E+000  
  299.50  0.0000E+000  
  300.00  2.4689E-005  
  300.50  4.9130E-005  
  301.00  2.4796E-006  
  301.50  0.0000E+000  
  302.00  0.0000E+000  
  302.50  0.0000E+000  
  303.00  0.0000E+000  
  303.50  1.5072E-005  
  304.00  4.3546E-005  
  304.50  7.3093E-005  
  305.00  8.0034E-005  
  305.50  6.7444E-005  
  306.00  5.4184E-005  
  306.50  4.9053E-005  
  307.00  1.0081E-004  
  307.50  1.2710E-004  
  308.00  7.8310E-005  
  308.50  2.3406E-005  
  309.00  0.0000E+000  
  309.50  0.0000E+000  
  310.00  0.0000E+000  
  310.50  0.0000E+000  
  311.00  0.0000E+000  
  311.50  0.0000E+000  
  312.00  4.0584E-005  
  312.50  3.4721E-005  
  313.00  6.3346E-005  
  313.50  3.1781E-005  
  314.00  5.5329E-007  
  314.50  4.2473E-005  
  315.00  1.3154E-004  
  315.50  2.1853E-004  
  316.00  1.9747E-004  
  316.50  4.0296E-005  
  317.00  0.0000E+000  
  317.50  0.0000E+000  
  318.00  0.0000E+000  
  318.50  0.0000E+000  
  319.00  1.5189E-005  
  319.50  3.2824E-005  
  320.00  7.7620E-005  
  320.50  6.3943E-005  
  321.00  8.0206E-006  
  321.50  0.0000E+000  
  322.00  0.0000E+000  
  322.50  0.0000E+000  
  323.00  0.0000E+000  
  323.50  0.0000E+000  
  324.00  0.0000E+000  
  324.50  0.0000E+000  
  325.00  0.0000E+000  
  325.50  9.0492E-005  
  326.00  1.5782E-004  
  326.50  1.2288E-004  
  327.00  4.1989E-005  
  327.50  3.6817E-006  
  328.00  0.0000E+000  
  328.50  2.9911E-006  
  329.00  5.6607E-005  
  329.50  1.4539E-004  
  330.00  2.0693E-004  
  330.50  1.7415E-004  
  331.00  5.8291E-005  
  331.50  0.0000E+000  
  332.00  0.0000E+000  
  332.50  0.0000E+000  
  333.00  0.0000E+000  
  333.50  7.6278E-006  
  334.00  4.1892E-005  
  334.50  1.0524E-004  
  335.00  1.3333E-004  
  335.50  8.2803E-005  
  336.00  4.2290E-005  
  336.50  0.0000E+000  
  337.00  0.0000E+000  
  337.50  2.2688E-005  
  338.00  1.4846E-005  
  338.50  4.4969E-007  
  339.00  2.1825E-005  
  339.50  1.3069E-005  
  340.00  1.1769E-005  
  340.50  1.4897E-006  
  341.00  0.0000E+000  
  341.50  0.0000E+000  
  342.00  0.0000E+000  
  342.50  0.0000E+000  
  343.00  0.0000E+000  
  343.50  0.0000E+000  
  344.00  2.7099E-005  
  344.50  9.7103E-005  
  345.00  1.0520E-004  
  345.50  5.6308E-005  
  346.00  3.7174E-005  
  346.50  4.6932E-005  
  347.00  4.4565E-005  
  347.50  2.1398E-005  
  348.00  5.0018E-007  
  348.50  0.0000E+000  
  349.00  3.2118E-005  
  349.50  4.0888E-005  
  350.00  1.4780E-005  
  350.50  1.5052E-005  
  351.00  1.7496E-008  
  351.50  2.0125E-005  
  352.00  1.0824E-005  
  352.50  0.0000E+000  
  353.00  0.0000E+000  
  353.50  0.0000E+000  
  354.00  4.2929E-005  
  354.50  6.4849E-005  
  355.00  1.0743E-004  
  355.50  1.5422E-004  
  356.00  1.5804E-004  
  356.50  1.4478E-004  
  357.00  1.0175E-004  
  357.50  5.3264E-005  
  358.00  7.0613E-005  
  358.50  8.5873E-005  
  359.00  9.3150E-005  
  359.50  8.5984E-005  
  360.00  5.1857E-005  
  360.50  4.4925E-005  
  361.00  2.8670E-005  
  361.50  3.4964E-005  
  362.00  7.8400E-005  
  362.50  8.7852E-005  
  363.00  9.7115E-005  
  363.50  6.7634E-005  
  364.00  5.6728E-005  
  364.50  7.4760E-005  
  365.00  8.4004E-005  
  365.50  1.0126E-004  
  366.00  7.8529E-005  
  366.50  7.7553E-005  
  367.00  1.1744E-004  
  367.50  1.0656E-004  
  368.00  1.1171E-004  
  368.50  8.0553E-005  
  369.00  8.4055E-006  
  369.50  0.0000E+000  
  370.00  0.0000E+000  
  370.50  1.1695E-005  
  371.00  7.7965E-005  
  371.50  5.7764E-005  
  372.00  9.9246E-006  
  372.50  0.0000E+000  
  373.00  0.0000E+000  
  373.50  0.0000E+000  
  374.00  6.3867E-007  
  374.50  1.0507E-005  
  375.00  0.0000E+000  
  375.50  9.7633E-007  
  376.00  6.1606E-006  
  376.50  0.0000E+000  
  377.00  0.0000E+000  
  377.50  0.0000E+000  
  378.00  0.0000E+000  
  378.50  0.0000E+000  
  379.00  0.0000E+000  
  379.50  0.0000E+000  
  380.00  0.0000E+000  
  380.50  0.0000E+000  
  381.00  1.9266E-005  
  381.50  9.1910E-005  
  382.00  1.5221E-004  
  382.50  1.8303E-004  
  383.00  1.7121E-004  
  383.50  1.9974E-004  
  384.00  1.5458E-004  
  384.50  1.2465E-004  
  385.00  8.9948E-005  
  385.50  0.0000E+000  
  386.00  0.0000E+000  
  386.50  0.0000E+000  
  387.00  4.9702E-005  
  387.50  1.7023E-004  
  388.00  2.4352E-004  
  388.50  2.4719E-004  
  389.00  1.7619E-004  
  389.50  9.7744E-005  
  390.00  3.0885E-005  
  390.50  4.7810E-007  
  391.00  3.7658E-005  
  391.50  8.8153E-005  
  392.00  1.1330E-004  
  392.50  9.9441E-005  
  393.00  1.1079E-004  
  393.50  1.5851E-004  
  394.00  1.4086E-004  
  394.50  1.5156E-004  
  395.00  9.7036E-005  
  395.50  9.9964E-005  
  396.00  1.4800E-004  
  396.50  1.7955E-004  
  397.00  2.0577E-004  
  397.50  2.2600E-004  
  398.00  2.0072E-004  
  398.50  1.2861E-004  
  399.00  1.2471E-004  
  399.50  1.2935E-004  
  400.00  1.7356E-004  
  400.50  1.8058E-004  
  401.00  1.0473E-004  
  401.50  3.4775E-005  
  402.00  2.4701E-007  
  402.50  4.0076E-005  
  403.00  8.4227E-005  
  403.50  1.3931E-004  
  404.00  1.3917E-004  
  404.50  1.6068E-004  
  405.00  2.2282E-004  
  405.50  2.8713E-004  
  406.00  3.3905E-004  
  406.50  3.8892E-004  
  407.00  3.9123E-004  
  407.50  3.9800E-004  
  408.00  3.7746E-004  
  408.50  3.4247E-004  
  409.00  3.1568E-004  
  409.50  2.9267E-004  
  410.00  2.7376E-004  
  410.50  2.8840E-004  
  411.00  3.1522E-004  
  411.50  3.6310E-004  
  412.00  4.0852E-004  
  412.50  4.4458E-004  
  413.00  4.7349E-004  
  413.50  5.1543E-004  
  414.00  5.9309E-004  
  414.50  6.6563E-004  
  415.00  6.8046E-004  
  415.50  6.7595E-004  
  416.00  6.3321E-004  
  416.50  6.3892E-004  
  417.00  6.8926E-004  
  417.50  7.5954E-004  
  418.00  8.5781E-004  
  418.50  9.8685E-004  
  419.00  1.0957E-003  
  419.50  1.1495E-003  
  420.00  1.2190E-003  
  420.50  1.2736E-003  
  421.00  1.3111E-003  
  421.50  1.3652E-003  
  422.00  1.3809E-003  
  422.50  1.4189E-003  
  423.00  1.4551E-003  
  423.50  1.5511E-003  
  424.00  1.6776E-003  
  424.50  1.8671E-003  
  425.00  2.0850E-003  
  425.50  2.2600E-003  
  426.00  2.4247E-003  
  426.50  2.5799E-003  
  427.00  2.7050E-003  
  427.50  2.8526E-003  
  428.00  2.9776E-003  
  428.50  3.1340E-003  
  429.00  3.2828E-003  
  429.50  3.4404E-003  
  430.00  3.6177E-003  
  430.50  3.7932E-003  
  431.00  3.9930E-003  
  431.50  4.2177E-003  
  432.00  4.3807E-003  
  432.50  4.5728E-003  
  433.00  4.7917E-003  
  433.50  5.0959E-003  
  434.00  5.4624E-003  
  434.50  5.7601E-003  
  435.00  6.0318E-003  
  435.50  6.2801E-003  
  436.00  6.5822E-003  
  436.50  6.9277E-003  
  437.00  7.2229E-003  
  437.50  7.4833E-003  
  438.00  7.7007E-003  
  438.50  7.9672E-003  
  439.00  8.2968E-003  
  439.50  8.6956E-003  
  440.00  9.1430E-003  
  440.50  9.5655E-003  
  441.00  9.9446E-003  
  441.50  1.0355E-002  
  442.00  1.0742E-002  
  442.50  1.1187E-002  
  443.00  1.1640E-002  
  443.50  1.2153E-002  
  444.00  1.2701E-002  
  444.50  1.3284E-002  
  445.00  1.3930E-002  
  445.50  1.4511E-002  
  446.00  1.4957E-002  
  446.50  1.5383E-002  
  447.00  1.5791E-002  
  447.50  1.6245E-002  
  448.00  1.6736E-002  
  448.50  1.7098E-002  
  449.00  1.7407E-002  
  449.50  1.7724E-002  
  450.00  1.7976E-002  
  450.50  1.8199E-002  
  451.00  1.8293E-002  
  451.50  1.8249E-002  
  452.00  1.8152E-002  
  452.50  1.7990E-002  
  453.00  1.7858E-002  
  453.50  1.7752E-002  
  454.00  1.7552E-002  
  454.50  1.7188E-002  
  455.00  1.6762E-002  
  455.50  1.6283E-002  
  456.00  1.5777E-002  
  456.50  1.5231E-002  
  457.00  1.4703E-002  
  457.50  1.4205E-002  
  458.00  1.3752E-002  
  458.50  1.3347E-002  
  459.00  1.2869E-002  
  459.50  1.2361E-002  
  460.00  1.1892E-002  
  460.50  1.1465E-002  
  461.00  1.1217E-002  
  461.50  1.1029E-002  
  462.00  1.0781E-002  
  462.50  1.0443E-002  
  463.00  1.0166E-002  
  463.50  9.9468E-003  
  464.00  9.8064E-003  
  464.50  9.6366E-003  
  465.00  9.4159E-003  
  465.50  9.2121E-003  
  466.00  9.0181E-003  
  466.50  8.8816E-003  
  467.00  8.7911E-003  
  467.50  8.7054E-003  
  468.00  8.5857E-003  
  468.50  8.3747E-003  
  469.00  8.0927E-003  
  469.50  7.8492E-003  
  470.00  7.6600E-003  
  470.50  7.5436E-003  
  471.00  7.3600E-003  
  471.50  7.1409E-003  
  472.00  6.9451E-003  
  472.50  6.7660E-003  
  473.00  6.6464E-003  
  473.50  6.5606E-003  
  474.00  6.4861E-003  
  474.50  6.4154E-003  
  475.00  6.3241E-003  
  475.50  6.1969E-003  
  476.00  6.0341E-003  
  476.50  5.8940E-003  
  477.00  5.8217E-003  
  477.50  5.7921E-003  
  478.00  5.7746E-003  
  478.50  5.7347E-003  
  479.00  5.6321E-003  
  479.50  5.5819E-003  
  480.00  5.5565E-003  
  480.50  5.5873E-003  
  481.00  5.6336E-003  
  481.50  5.6532E-003  
  482.00  5.6593E-003  
  482.50  5.6968E-003  
  483.00  5.7197E-003  
  483.50  5.7411E-003  
  484.00  5.7384E-003  
  484.50  5.7598E-003  
  485.00  5.8528E-003  
  485.50  5.9817E-003  
  486.00  6.1243E-003  
  486.50  6.1963E-003  
  487.00  6.2518E-003  
  487.50  6.2499E-003  
  488.00  6.2936E-003  
  488.50  6.3471E-003  
  489.00  6.4327E-003  
  489.50  6.5138E-003  
  490.00  6.5833E-003  
  490.50  6.6349E-003  
  491.00  6.7093E-003  
  491.50  6.8365E-003  
  492.00  6.9817E-003  
  492.50  7.1680E-003  
  493.00  7.3256E-003  
  493.50  7.4715E-003  
  494.00  7.6253E-003  
  494.50  7.7468E-003  
  495.00  7.8727E-003  
  495.50  7.9872E-003  
  496.00  8.1172E-003  
  496.50  8.2997E-003  
  497.00  8.4965E-003  
  497.50  8.7287E-003  
  498.00  8.9137E-003  
  498.50  9.1024E-003  
  499.00  9.2530E-003  
  499.50  9.3904E-003  
  500.00  9.5232E-003  
  500.50  9.6937E-003  
  501.00  9.8776E-003  
  501.50  1.0110E-002  
  502.00  1.0340E-002  
  502.50  1.0530E-002  
  503.00  1.0694E-002  
  503.50  1.0826E-002  
  504.00  1.1003E-002  
  504.50  1.1196E-002  
  505.00  1.1382E-002  
  505.50  1.1572E-002  
  506.00  1.1714E-002  
  506.50  1.1883E-002  
  507.00  1.2049E-002  
  507.50  1.2250E-002  
  508.00  1.2436E-002  
  508.50  1.2598E-002  
  509.00  1.2746E-002  
  509.50  1.2910E-002  
  510.00  1.3106E-002  
  510.50  1.3320E-002  
  511.00  1.3501E-002  
  511.50  1.3655E-002  
  512.00  1.3790E-002  
  512.50  1.3941E-002  
  513.00  1.4138E-002  
  513.50  1.4341E-002  
  514.00  1.4536E-002  
  514.50  1.4710E-002  
  515.00  1.4848E-002  
  515.50  1.4932E-002  
  516.00  1.5013E-002  
  516.50  1.5134E-002  
  517.00  1.5272E-002  
  517.50  1.5443E-002  
  518.00  1.5592E-002  
  518.50  1.5767E-002  
  519.00  1.5925E-002  
  519.50  1.6051E-002  
  520.00  1.6178E-002  
  520.50  1.6299E-002  
  521.00  1.6483E-002  
  521.50  1.6632E-002  
  522.00  1.6760E-002  
  522.50  1.6860E-002  
  523.00  1.6937E-002  
  523.50  1.7076E-002  
  524.00  1.7221E-002  
  524.50  1.7394E-002  
  525.00  1.7547E-002  
  525.50  1.7662E-002  
  526.00  1.7746E-002  
  526.50  1.7884E-002  
  527.00  1.8035E-002  
  527.50  1.8212E-002  
  528.00  1.8375E-002  
  528.50  1.8482E-002  
  529.00  1.8603E-002  
  529.50  1.8695E-002  
  530.00  1.8820E-002  
  530.50  1.8955E-002  
  531.00  1.9125E-002  
  531.50  1.9271E-002  
  532.00  1.9393E-002  
  532.50  1.9505E-002  
  533.00  1.9635E-002  
  533.50  1.9816E-002  
  534.00  1.9962E-002  
  534.50  2.0095E-002  
  535.00  2.0207E-002  
  535.50  2.0367E-002  
  536.00  2.0552E-002  
  536.50  2.0730E-002  
  537.00  2.0898E-002  
  537.50  2.1050E-002  
  538.00  2.1168E-002  
  538.50  2.1310E-002  
  539.00  2.1439E-002  
  539.50  2.1562E-002  
  540.00  2.1678E-002  
  540.50  2.1782E-002  
  541.00  2.1950E-002  
  541.50  2.2150E-002  
  542.00  2.2350E-002  
  542.50  2.2538E-002  
  543.00  2.2679E-002  
  543.50  2.2743E-002  
  544.00  2.2829E-002  
  544.50  2.2939E-002  
  545.00  2.3184E-002  
  545.50  2.3469E-002  
  546.00  2.3703E-002  
  546.50  2.3901E-002  
  547.00  2.4047E-002  
  547.50  2.4165E-002  
  548.00  2.4255E-002  
  548.50  2.4346E-002  
  549.00  2.4551E-002  
  549.50  2.4795E-002  
  550.00  2.5054E-002  
  550.50  2.5304E-002  
  551.00  2.5470E-002  
  551.50  2.5641E-002  
  552.00  2.5786E-002  
  552.50  2.5985E-002  
  553.00  2.6181E-002  
  553.50  2.6369E-002  
  554.00  2.6553E-002  
  554.50  2.6759E-002  
  555.00  2.6964E-002  
  555.50  2.7112E-002  
  556.00  2.7277E-002  
  556.50  2.7469E-002  
  557.00  2.7716E-002  
  557.50  2.7972E-002  
  558.00  2.8267E-002  
  558.50  2.8535E-002  
  559.00  2.8839E-002  
  559.50  2.9007E-002  
  560.00  2.9155E-002  
  560.50  2.9231E-002  
  561.00  2.9433E-002  
  561.50  2.9631E-002  
  562.00  2.9869E-002  
  562.50  3.0080E-002  
  563.00  3.0352E-002  
  563.50  3.0658E-002  
  564.00  3.0890E-002  
  564.50  3.1049E-002  
  565.00  3.1174E-002  
  565.50  3.1348E-002  
  566.00  3.1568E-002  
  566.50  3.1786E-002  
  567.00  3.1999E-002  
  567.50  3.2193E-002  
  568.00  3.2330E-002  
  568.50  3.2528E-002  
  569.00  3.2768E-002  
  569.50  3.3056E-002  
  570.00  3.3246E-002  
  570.50  3.3396E-002  
  571.00  3.3585E-002  
  571.50  3.3854E-002  
  572.00  3.4089E-002  
  572.50  3.4321E-002  
  573.00  3.4490E-002  
  573.50  3.4616E-002  
  574.00  3.4722E-002  
  574.50  3.4869E-002  
  575.00  3.5105E-002  
  575.50  3.5306E-002  
  576.00  3.5467E-002  
  576.50  3.5618E-002  
  577.00  3.5814E-002  
  577.50  3.6013E-002  
  578.00  3.6197E-002  
  578.50  3.6421E-002  
  579.00  3.6611E-002  
  579.50  3.6823E-002  
  580.00  3.6997E-002  
  580.50  3.7184E-002  
  581.00  3.7413E-002  
  581.50  3.7689E-002  
  582.00  3.7918E-002  
  582.50  3.8050E-002  
  583.00  3.8156E-002  
  583.50  3.8286E-002  
  584.00  3.8393E-002  
  584.50  3.8521E-002  
  585.00  3.8727E-002  
  585.50  3.8967E-002  
  586.00  3.9108E-002  
  586.50  3.9102E-002  
  587.00  3.9151E-002  
  587.50  3.9359E-002  
  588.00  3.9602E-002  
  588.50  3.9781E-002  
  589.00  3.9814E-002  
  589.50  3.9889E-002  
  590.00  4.0009E-002  
  590.50  4.0193E-002  
  591.00  4.0300E-002  
  591.50  4.0427E-002  
  592.00  4.0563E-002  
  592.50  4.0750E-002  
  593.00  4.0859E-002  
  593.50  4.0841E-002  
  594.00  4.0920E-002  
  594.50  4.1034E-002  
  595.00  4.1169E-002  
  595.50  4.1224E-002  
  596.00  4.1291E-002  
  596.50  4.1422E-002  
  597.00  4.1451E-002  
  597.50  4.1460E-002  
  598.00  4.1421E-002  
  598.50  4.1419E-002  
  599.00  4.1437E-002  
  599.50  4.1532E-002  
  600.00  4.1648E-002  
  600.50  4.1684E-002  
  601.00  4.1710E-002  
  601.50  4.1793E-002  
  602.00  4.1950E-002  
  602.50  4.1993E-002  
  603.00  4.2033E-002  
  603.50  4.2004E-002  
  604.00  4.1954E-002  
  604.50  4.1950E-002  
  605.00  4.1910E-002  
  605.50  4.1931E-002  
  606.00  4.1904E-002  
  606.50  4.1993E-002  
  607.00  4.2080E-002  
  607.50  4.2063E-002  
  608.00  4.1902E-002  
  608.50  4.1824E-002  
  609.00  4.1799E-002  
  609.50  4.1806E-002  
  610.00  4.1775E-002  
  610.50  4.1703E-002  
  611.00  4.1624E-002  
  611.50  4.1495E-002  
  612.00  4.1489E-002  
  612.50  4.1509E-002  
  613.00  4.1519E-002  
  613.50  4.1359E-002  
  614.00  4.1160E-002  
  614.50  4.1110E-002  
  615.00  4.1050E-002  
  615.50  4.1073E-002  
  616.00  4.1060E-002  
  616.50  4.1079E-002  
  617.00  4.0993E-002  
  617.50  4.0872E-002  
  618.00  4.0664E-002  
  618.50  4.0518E-002  
  619.00  4.0324E-002  
  619.50  4.0251E-002  
  620.00  4.0133E-002  
  620.50  3.9959E-002  
  621.00  3.9707E-002  
  621.50  3.9580E-002  
  622.00  3.9412E-002  
  622.50  3.9283E-002  
  623.00  3.9130E-002  
  623.50  3.9026E-002  
  624.00  3.8895E-002  
  624.50  3.8732E-002  
  625.00  3.8634E-002  
  625.50  3.8534E-002  
  626.00  3.8283E-002  
  626.50  3.8017E-002  
  627.00  3.7792E-002  
  627.50  3.7737E-002  
  628.00  3.7637E-002  
  628.50  3.7526E-002  
  629.00  3.7357E-002  
  629.50  3.7215E-002  
  630.00  3.7097E-002  
  630.50  3.6922E-002  
  631.00  3.6711E-002  
  631.50  3.6495E-002  
  632.00  3.6270E-002  
  632.50  3.6043E-002  
  633.00  3.5922E-002  
  633.50  3.5926E-002  
  634.00  3.5936E-002  
  634.50  3.5800E-002  
  635.00  3.5593E-002  
  635.50  3.5339E-002  
  636.00  3.5093E-002  
  636.50  3.4720E-002  
  637.00  3.4409E-002  
  637.50  3.4124E-002  
  638.00  3.3907E-002  
  638.50  3.3737E-002  
  639.00  3.3611E-002  
  639.50  3.3460E-002  
  640.00  3.3201E-002  
  640.50  3.2867E-002  
  641.00  3.2624E-002  
  641.50  3.2484E-002  
  642.00  3.2248E-002  
  642.50  3.2017E-002  
  643.00  3.1741E-002  
  643.50  3.1561E-002  
  644.00  3.1380E-002  
  644.50  3.1143E-002  
  645.00  3.0901E-002  
  645.50  3.0570E-002  
  646.00  3.0382E-002  
  646.50  3.0201E-002  
  647.00  3.0007E-002  
  647.50  2.9774E-002  
  648.00  2.9566E-002  
  648.50  2.9406E-002  
  649.00  2.9255E-002  
  649.50  2.9049E-002  
  650.00  2.8848E-002  
  650.50  2.8543E-002  
  651.00  2.8169E-002  
  651.50  2.7826E-002  
  652.00  2.7552E-002  
  652.50  2.7312E-002  
  653.00  2.7079E-002  
  653.50  2.6796E-002  
  654.00  2.6609E-002  
  654.50  2.6471E-002  
  655.00  2.6287E-002  
  655.50  2.6053E-002  
  656.00  2.5691E-002  
  656.50  2.5459E-002  
  657.00  2.5254E-002  
  657.50  2.5016E-002  
  658.00  2.4742E-002  
  658.50  2.4547E-002  
  659.00  2.4346E-002  
  659.50  2.4022E-002  
  660.00  2.3711E-002  
  660.50  2.3514E-002  
  661.00  2.3347E-002  
  661.50  2.3081E-002  
  662.00  2.2833E-002  
  662.50  2.2607E-002  
  663.00  2.2357E-002  
  663.50  2.2105E-002  
  664.00  2.1896E-002  
  664.50  2.1699E-002  
  665.00  2.1459E-002  
  665.50  2.1169E-002  
  666.00  2.0849E-002  
  666.50  2.0595E-002  
  667.00  2.0461E-002  
  667.50  2.0379E-002  
  668.00  2.0249E-002  
  668.50  2.0046E-002  
  669.00  1.9854E-002  
  669.50  1.9602E-002  
  670.00  1.9380E-002  
  670.50  1.9114E-002  
  671.00  1.8891E-002  
  671.50  1.8676E-002  
  672.00  1.8508E-002  
  672.50  1.8330E-002  
  673.00  1.8099E-002  
  673.50  1.7938E-002  
  674.00  1.7730E-002  
  674.50  1.7477E-002  
  675.00  1.7169E-002  
  675.50  1.7044E-002  
  676.00  1.6874E-002  
  676.50  1.6675E-002  
  677.00  1.6459E-002  
  677.50  1.6268E-002  
  678.00  1.6041E-002  
  678.50  1.5825E-002  
  679.00  1.5664E-002  
  679.50  1.5516E-002  
  680.00  1.5264E-002  
