
# From lspdd.org
# 
# Name: DEL Philips PAR20 Domestique
# Indice spectral Valeur 
# MSI 0.29 
# SLI 0.49 
# IPI 0.68 
# Pourcentage de bleu 18.2 
# Caractéristique Valeur 
# CCT calculée (K) 2759 
# CCT du fabricant (K) 2700 
# Tension (V) 120 
# Puissance (W) 5.0 
# Efficacité lumineuse (Lum/W) 66.0 
#
# Image: '/app/system/img_2s/2633/medium_image2.JPG?1423776224'
# Image: '/app/system/img_1s/2633/medium_image1.JPG?1423776220'
# 

  273.00  0.0000E+000  
  273.50  0.0000E+000  
  274.00  0.0000E+000  
  274.50  0.0000E+000  
  275.00  0.0000E+000  
  275.50  0.0000E+000  
  276.00  0.0000E+000  
  276.50  0.0000E+000  
  277.00  0.0000E+000  
  277.50  0.0000E+000  
  278.00  0.0000E+000  
  278.50  0.0000E+000  
  279.00  0.0000E+000  
  279.50  0.0000E+000  
  280.00  0.0000E+000  
  280.50  0.0000E+000  
  281.00  0.0000E+000  
  281.50  0.0000E+000  
  282.00  0.0000E+000  
  282.50  0.0000E+000  
  283.00  0.0000E+000  
  283.50  0.0000E+000  
  284.00  0.0000E+000  
  284.50  0.0000E+000  
  285.00  0.0000E+000  
  285.50  0.0000E+000  
  286.00  0.0000E+000  
  286.50  0.0000E+000  
  287.00  0.0000E+000  
  287.50  0.0000E+000  
  288.00  0.0000E+000  
  288.50  0.0000E+000  
  289.00  0.0000E+000  
  289.50  0.0000E+000  
  290.00  0.0000E+000  
  290.50  0.0000E+000  
  291.00  0.0000E+000  
  291.50  0.0000E+000  
  292.00  0.0000E+000  
  292.50  0.0000E+000  
  293.00  0.0000E+000  
  293.50  0.0000E+000  
  294.00  0.0000E+000  
  294.50  0.0000E+000  
  295.00  0.0000E+000  
  295.50  0.0000E+000  
  296.00  0.0000E+000  
  296.50  0.0000E+000  
  297.00  0.0000E+000  
  297.50  0.0000E+000  
  298.00  0.0000E+000  
  298.50  0.0000E+000  
  299.00  0.0000E+000  
  299.50  0.0000E+000  
  300.00  2.2249E-005  
  300.50  7.7380E-005  
  301.00  7.6761E-005  
  301.50  6.1940E-005  
  302.00  8.4985E-005  
  302.50  4.0357E-005  
  303.00  6.0162E-006  
  303.50  6.0145E-005  
  304.00  9.2390E-005  
  304.50  1.4351E-004  
  305.00  1.3285E-004  
  305.50  1.2365E-004  
  306.00  1.7890E-004  
  306.50  1.8082E-004  
  307.00  2.0261E-004  
  307.50  1.5580E-004  
  308.00  4.9838E-005  
  308.50  1.7520E-005  
  309.00  4.2027E-006  
  309.50  0.0000E+000  
  310.00  0.0000E+000  
  310.50  0.0000E+000  
  311.00  0.0000E+000  
  311.50  0.0000E+000  
  312.00  1.6790E-006  
  312.50  1.7042E-005  
  313.00  5.5221E-005  
  313.50  3.9593E-005  
  314.00  1.4514E-005  
  314.50  2.5954E-005  
  315.00  3.3231E-005  
  315.50  5.0131E-005  
  316.00  1.4805E-005  
  316.50  0.0000E+000  
  317.00  0.0000E+000  
  317.50  0.0000E+000  
  318.00  0.0000E+000  
  318.50  0.0000E+000  
  319.00  0.0000E+000  
  319.50  0.0000E+000  
  320.00  0.0000E+000  
  320.50  8.0167E-006  
  321.00  0.0000E+000  
  321.50  0.0000E+000  
  322.00  0.0000E+000  
  322.50  0.0000E+000  
  323.00  0.0000E+000  
  323.50  0.0000E+000  
  324.00  0.0000E+000  
  324.50  0.0000E+000  
  325.00  2.0075E-005  
  325.50  9.1551E-005  
  326.00  1.4446E-004  
  326.50  1.3763E-004  
  327.00  6.6753E-005  
  327.50  6.5184E-005  
  328.00  8.0120E-005  
  328.50  1.3049E-004  
  329.00  1.2887E-004  
  329.50  1.4570E-004  
  330.00  1.8328E-004  
  330.50  1.8818E-004  
  331.00  1.8693E-004  
  331.50  1.3790E-004  
  332.00  2.7815E-005  
  332.50  0.0000E+000  
  333.00  0.0000E+000  
  333.50  0.0000E+000  
  334.00  5.7027E-005  
  334.50  1.4523E-004  
  335.00  1.9598E-004  
  335.50  1.9445E-004  
  336.00  1.3263E-004  
  336.50  9.3598E-005  
  337.00  1.0037E-004  
  337.50  1.3156E-004  
  338.00  1.2344E-004  
  338.50  9.6030E-005  
  339.00  8.8909E-005  
  339.50  3.3417E-005  
  340.00  5.5522E-005  
  340.50  6.2079E-005  
  341.00  0.0000E+000  
  341.50  0.0000E+000  
  342.00  0.0000E+000  
  342.50  0.0000E+000  
  343.00  0.0000E+000  
  343.50  0.0000E+000  
  344.00  0.0000E+000  
  344.50  0.0000E+000  
  345.00  0.0000E+000  
  345.50  0.0000E+000  
  346.00  3.5054E-005  
  346.50  9.3893E-005  
  347.00  9.8330E-005  
  347.50  6.6848E-005  
  348.00  3.1075E-006  
  348.50  1.0484E-005  
  349.00  5.6795E-005  
  349.50  1.3765E-004  
  350.00  2.0755E-004  
  350.50  2.4068E-004  
  351.00  2.4131E-004  
  351.50  2.2244E-004  
  352.00  1.6446E-004  
  352.50  8.4736E-005  
  353.00  4.3453E-005  
  353.50  7.6818E-005  
  354.00  1.2754E-004  
  354.50  1.5226E-004  
  355.00  1.3091E-004  
  355.50  5.7932E-005  
  356.00  5.9314E-005  
  356.50  1.0577E-004  
  357.00  1.3407E-004  
  357.50  1.6435E-004  
  358.00  1.2294E-004  
  358.50  3.4763E-005  
  359.00  0.0000E+000  
  359.50  0.0000E+000  
  360.00  7.0610E-006  
  360.50  6.7139E-005  
  361.00  1.3318E-004  
  361.50  1.1691E-004  
  362.00  9.1807E-005  
  362.50  8.1764E-005  
  363.00  6.0024E-005  
  363.50  5.0203E-005  
  364.00  5.7682E-005  
  364.50  6.5763E-005  
  365.00  1.0135E-004  
  365.50  1.3598E-004  
  366.00  1.2698E-004  
  366.50  1.1729E-004  
  367.00  1.2015E-004  
  367.50  6.6414E-005  
  368.00  9.3541E-006  
  368.50  0.0000E+000  
  369.00  0.0000E+000  
  369.50  0.0000E+000  
  370.00  0.0000E+000  
  370.50  0.0000E+000  
  371.00  0.0000E+000  
  371.50  0.0000E+000  
  372.00  0.0000E+000  
  372.50  0.0000E+000  
  373.00  5.0464E-005  
  373.50  1.0788E-004  
  374.00  1.5382E-004  
  374.50  1.6653E-004  
  375.00  1.0675E-004  
  375.50  3.2501E-005  
  376.00  0.0000E+000  
  376.50  0.0000E+000  
  377.00  0.0000E+000  
  377.50  0.0000E+000  
  378.00  0.0000E+000  
  378.50  0.0000E+000  
  379.00  0.0000E+000  
  379.50  0.0000E+000  
  380.00  0.0000E+000  
  380.50  0.0000E+000  
  381.00  5.0809E-007  
  381.50  4.6374E-005  
  382.00  1.1823E-004  
  382.50  1.2196E-004  
  383.00  9.2224E-005  
  383.50  7.2882E-005  
  384.00  1.0691E-004  
  384.50  1.5367E-004  
  385.00  1.6400E-004  
  385.50  9.1420E-005  
  386.00  6.6366E-005  
  386.50  6.2673E-005  
  387.00  1.1974E-004  
  387.50  1.6967E-004  
  388.00  2.0663E-004  
  388.50  2.1071E-004  
  389.00  1.8817E-004  
  389.50  8.1570E-005  
  390.00  2.2091E-006  
  390.50  0.0000E+000  
  391.00  0.0000E+000  
  391.50  6.0760E-005  
  392.00  1.4302E-004  
  392.50  1.2009E-004  
  393.00  8.9726E-005  
  393.50  8.0574E-005  
  394.00  9.3380E-005  
  394.50  1.2426E-004  
  395.00  1.1890E-004  
  395.50  7.7347E-005  
  396.00  5.4511E-005  
  396.50  1.0286E-004  
  397.00  1.4216E-004  
  397.50  2.0803E-004  
  398.00  2.1684E-004  
  398.50  1.0289E-004  
  399.00  6.9053E-005  
  399.50  6.6382E-005  
  400.00  1.0527E-004  
  400.50  1.6460E-004  
  401.00  1.6068E-004  
  401.50  1.3817E-004  
  402.00  1.1457E-004  
  402.50  1.3429E-004  
  403.00  1.1753E-004  
  403.50  1.5078E-004  
  404.00  1.3600E-004  
  404.50  8.5165E-005  
  405.00  1.2984E-004  
  405.50  1.7794E-004  
  406.00  2.8236E-004  
  406.50  3.5354E-004  
  407.00  3.1466E-004  
  407.50  2.8825E-004  
  408.00  2.2982E-004  
  408.50  2.2864E-004  
  409.00  2.7308E-004  
  409.50  3.1037E-004  
  410.00  3.7476E-004  
  410.50  3.9181E-004  
  411.00  3.9279E-004  
  411.50  4.0082E-004  
  412.00  4.0681E-004  
  412.50  4.4746E-004  
  413.00  4.6472E-004  
  413.50  4.9086E-004  
  414.00  5.3736E-004  
  414.50  5.7735E-004  
  415.00  6.4034E-004  
  415.50  6.4298E-004  
  416.00  6.0809E-004  
  416.50  5.9132E-004  
  417.00  6.2989E-004  
  417.50  6.7014E-004  
  418.00  7.3121E-004  
  418.50  7.7322E-004  
  419.00  8.4189E-004  
  419.50  8.9251E-004  
  420.00  9.8268E-004  
  420.50  1.0698E-003  
  421.00  1.1292E-003  
  421.50  1.1957E-003  
  422.00  1.2280E-003  
  422.50  1.2964E-003  
  423.00  1.3868E-003  
  423.50  1.4876E-003  
  424.00  1.5997E-003  
  424.50  1.7273E-003  
  425.00  1.8912E-003  
  425.50  2.0024E-003  
  426.00  2.1349E-003  
  426.50  2.2523E-003  
  427.00  2.4102E-003  
  427.50  2.5823E-003  
  428.00  2.6732E-003  
  428.50  2.8058E-003  
  429.00  2.9328E-003  
  429.50  3.0926E-003  
  430.00  3.2859E-003  
  430.50  3.4920E-003  
  431.00  3.6608E-003  
  431.50  3.8430E-003  
  432.00  3.9534E-003  
  432.50  4.0785E-003  
  433.00  4.2729E-003  
  433.50  4.5539E-003  
  434.00  4.8547E-003  
  434.50  5.1039E-003  
  435.00  5.3287E-003  
  435.50  5.5485E-003  
  436.00  5.8230E-003  
  436.50  6.1288E-003  
  437.00  6.4197E-003  
  437.50  6.7394E-003  
  438.00  7.0691E-003  
  438.50  7.4139E-003  
  439.00  7.7417E-003  
  439.50  8.0840E-003  
  440.00  8.4331E-003  
  440.50  8.8166E-003  
  441.00  9.1589E-003  
  441.50  9.5189E-003  
  442.00  9.9837E-003  
  442.50  1.0487E-002  
  443.00  1.1029E-002  
  443.50  1.1586E-002  
  444.00  1.2084E-002  
  444.50  1.2603E-002  
  445.00  1.3079E-002  
  445.50  1.3557E-002  
  446.00  1.3964E-002  
  446.50  1.4447E-002  
  447.00  1.4931E-002  
  447.50  1.5485E-002  
  448.00  1.6061E-002  
  448.50  1.6466E-002  
  449.00  1.6790E-002  
  449.50  1.7042E-002  
  450.00  1.7397E-002  
  450.50  1.7744E-002  
  451.00  1.8075E-002  
  451.50  1.8160E-002  
  452.00  1.8138E-002  
  452.50  1.8027E-002  
  453.00  1.7899E-002  
  453.50  1.7712E-002  
  454.00  1.7443E-002  
  454.50  1.7075E-002  
  455.00  1.6633E-002  
  455.50  1.6200E-002  
  456.00  1.5694E-002  
  456.50  1.5203E-002  
  457.00  1.4735E-002  
  457.50  1.4317E-002  
  458.00  1.3885E-002  
  458.50  1.3447E-002  
  459.00  1.2964E-002  
  459.50  1.2449E-002  
  460.00  1.1994E-002  
  460.50  1.1597E-002  
  461.00  1.1318E-002  
  461.50  1.1079E-002  
  462.00  1.0821E-002  
  462.50  1.0517E-002  
  463.00  1.0243E-002  
  463.50  9.9777E-003  
  464.00  9.7989E-003  
  464.50  9.6263E-003  
  465.00  9.4954E-003  
  465.50  9.3407E-003  
  466.00  9.1036E-003  
  466.50  8.8951E-003  
  467.00  8.6926E-003  
  467.50  8.6142E-003  
  468.00  8.5438E-003  
  468.50  8.4025E-003  
  469.00  8.1467E-003  
  469.50  7.8918E-003  
  470.00  7.6528E-003  
  470.50  7.5684E-003  
  471.00  7.4300E-003  
  471.50  7.2516E-003  
  472.00  7.0596E-003  
  472.50  6.8401E-003  
  473.00  6.6966E-003  
  473.50  6.5573E-003  
  474.00  6.4497E-003  
  474.50  6.3982E-003  
  475.00  6.3647E-003  
  475.50  6.2999E-003  
  476.00  6.1683E-003  
  476.50  6.0330E-003  
  477.00  5.9095E-003  
  477.50  5.8616E-003  
  478.00  5.8284E-003  
  478.50  5.8249E-003  
  479.00  5.7726E-003  
  479.50  5.7151E-003  
  480.00  5.6551E-003  
  480.50  5.6354E-003  
  481.00  5.6068E-003  
  481.50  5.6089E-003  
  482.00  5.6128E-003  
  482.50  5.6184E-003  
  483.00  5.6465E-003  
  483.50  5.6944E-003  
  484.00  5.7509E-003  
  484.50  5.7983E-003  
  485.00  5.8240E-003  
  485.50  5.8345E-003  
  486.00  5.9100E-003  
  486.50  5.9678E-003  
  487.00  6.0405E-003  
  487.50  6.0869E-003  
  488.00  6.1278E-003  
  488.50  6.2113E-003  
  489.00  6.3050E-003  
  489.50  6.4159E-003  
  490.00  6.5364E-003  
  490.50  6.6493E-003  
  491.00  6.7535E-003  
  491.50  6.8486E-003  
  492.00  6.9625E-003  
  492.50  7.0805E-003  
  493.00  7.2094E-003  
  493.50  7.3413E-003  
  494.00  7.5072E-003  
  494.50  7.6591E-003  
  495.00  7.7882E-003  
  495.50  7.9125E-003  
  496.00  8.0250E-003  
  496.50  8.2045E-003  
  497.00  8.3755E-003  
  497.50  8.5377E-003  
  498.00  8.7160E-003  
  498.50  8.8983E-003  
  499.00  9.0754E-003  
  499.50  9.2347E-003  
  500.00  9.3917E-003  
  500.50  9.5329E-003  
  501.00  9.6787E-003  
  501.50  9.8663E-003  
  502.00  1.0063E-002  
  502.50  1.0292E-002  
  503.00  1.0474E-002  
  503.50  1.0646E-002  
  504.00  1.0808E-002  
  504.50  1.0943E-002  
  505.00  1.1088E-002  
  505.50  1.1297E-002  
  506.00  1.1524E-002  
  506.50  1.1740E-002  
  507.00  1.1878E-002  
  507.50  1.2036E-002  
  508.00  1.2210E-002  
  508.50  1.2363E-002  
  509.00  1.2441E-002  
  509.50  1.2525E-002  
  510.00  1.2680E-002  
  510.50  1.2887E-002  
  511.00  1.3090E-002  
  511.50  1.3265E-002  
  512.00  1.3436E-002  
  512.50  1.3586E-002  
  513.00  1.3756E-002  
  513.50  1.3888E-002  
  514.00  1.4025E-002  
  514.50  1.4209E-002  
  515.00  1.4408E-002  
  515.50  1.4610E-002  
  516.00  1.4786E-002  
  516.50  1.4887E-002  
  517.00  1.4993E-002  
  517.50  1.5110E-002  
  518.00  1.5260E-002  
  518.50  1.5432E-002  
  519.00  1.5563E-002  
  519.50  1.5674E-002  
  520.00  1.5777E-002  
  520.50  1.5888E-002  
  521.00  1.6053E-002  
  521.50  1.6193E-002  
  522.00  1.6355E-002  
  522.50  1.6497E-002  
  523.00  1.6600E-002  
  523.50  1.6723E-002  
  524.00  1.6841E-002  
  524.50  1.7011E-002  
  525.00  1.7142E-002  
  525.50  1.7259E-002  
  526.00  1.7347E-002  
  526.50  1.7435E-002  
  527.00  1.7558E-002  
  527.50  1.7651E-002  
  528.00  1.7787E-002  
  528.50  1.7922E-002  
  529.00  1.8065E-002  
  529.50  1.8161E-002  
  530.00  1.8266E-002  
  530.50  1.8361E-002  
  531.00  1.8504E-002  
  531.50  1.8659E-002  
  532.00  1.8799E-002  
  532.50  1.8928E-002  
  533.00  1.9065E-002  
  533.50  1.9210E-002  
  534.00  1.9324E-002  
  534.50  1.9436E-002  
  535.00  1.9586E-002  
  535.50  1.9767E-002  
  536.00  1.9958E-002  
  536.50  2.0101E-002  
  537.00  2.0216E-002  
  537.50  2.0339E-002  
  538.00  2.0444E-002  
  538.50  2.0546E-002  
  539.00  2.0699E-002  
  539.50  2.0810E-002  
  540.00  2.0978E-002  
  540.50  2.1136E-002  
  541.00  2.1316E-002  
  541.50  2.1460E-002  
  542.00  2.1605E-002  
  542.50  2.1752E-002  
  543.00  2.1949E-002  
  543.50  2.2110E-002  
  544.00  2.2282E-002  
  544.50  2.2425E-002  
  545.00  2.2552E-002  
  545.50  2.2698E-002  
  546.00  2.2825E-002  
  546.50  2.2997E-002  
  547.00  2.3192E-002  
  547.50  2.3354E-002  
  548.00  2.3476E-002  
  548.50  2.3578E-002  
  549.00  2.3706E-002  
  549.50  2.3923E-002  
  550.00  2.4137E-002  
  550.50  2.4383E-002  
  551.00  2.4558E-002  
  551.50  2.4723E-002  
  552.00  2.4856E-002  
  552.50  2.5029E-002  
  553.00  2.5208E-002  
  553.50  2.5392E-002  
  554.00  2.5618E-002  
  554.50  2.5848E-002  
  555.00  2.6089E-002  
  555.50  2.6281E-002  
  556.00  2.6471E-002  
  556.50  2.6684E-002  
  557.00  2.6874E-002  
  557.50  2.7093E-002  
  558.00  2.7348E-002  
  558.50  2.7601E-002  
  559.00  2.7841E-002  
  559.50  2.8006E-002  
  560.00  2.8160E-002  
  560.50  2.8260E-002  
  561.00  2.8449E-002  
  561.50  2.8655E-002  
  562.00  2.8869E-002  
  562.50  2.9055E-002  
  563.00  2.9269E-002  
  563.50  2.9526E-002  
  564.00  2.9736E-002  
  564.50  2.9922E-002  
  565.00  3.0020E-002  
  565.50  3.0168E-002  
  566.00  3.0326E-002  
  566.50  3.0489E-002  
  567.00  3.0712E-002  
  567.50  3.0966E-002  
  568.00  3.1245E-002  
  568.50  3.1477E-002  
  569.00  3.1670E-002  
  569.50  3.1805E-002  
  570.00  3.1972E-002  
  570.50  3.2187E-002  
  571.00  3.2441E-002  
  571.50  3.2627E-002  
  572.00  3.2717E-002  
  572.50  3.2816E-002  
  573.00  3.3002E-002  
  573.50  3.3229E-002  
  574.00  3.3441E-002  
  574.50  3.3599E-002  
  575.00  3.3761E-002  
  575.50  3.3889E-002  
  576.00  3.4075E-002  
  576.50  3.4328E-002  
  577.00  3.4581E-002  
  577.50  3.4789E-002  
  578.00  3.4927E-002  
  578.50  3.5088E-002  
  579.00  3.5261E-002  
  579.50  3.5404E-002  
  580.00  3.5640E-002  
  580.50  3.5857E-002  
  581.00  3.6125E-002  
  581.50  3.6243E-002  
  582.00  3.6298E-002  
  582.50  3.6335E-002  
  583.00  3.6482E-002  
  583.50  3.6768E-002  
  584.00  3.6958E-002  
  584.50  3.7073E-002  
  585.00  3.7060E-002  
  585.50  3.7168E-002  
  586.00  3.7343E-002  
  586.50  3.7571E-002  
  587.00  3.7659E-002  
  587.50  3.7789E-002  
  588.00  3.7933E-002  
  588.50  3.8126E-002  
  589.00  3.8226E-002  
  589.50  3.8338E-002  
  590.00  3.8499E-002  
  590.50  3.8691E-002  
  591.00  3.8828E-002  
  591.50  3.8927E-002  
  592.00  3.8987E-002  
  592.50  3.8971E-002  
  593.00  3.9004E-002  
  593.50  3.9036E-002  
  594.00  3.9217E-002  
  594.50  3.9320E-002  
  595.00  3.9500E-002  
  595.50  3.9546E-002  
  596.00  3.9568E-002  
  596.50  3.9563E-002  
  597.00  3.9591E-002  
  597.50  3.9608E-002  
  598.00  3.9643E-002  
  598.50  3.9683E-002  
  599.00  3.9789E-002  
  599.50  3.9867E-002  
  600.00  3.9933E-002  
  600.50  3.9910E-002  
  601.00  3.9886E-002  
  601.50  3.9913E-002  
  602.00  3.9970E-002  
  602.50  4.0081E-002  
  603.00  4.0112E-002  
  603.50  4.0160E-002  
  604.00  4.0143E-002  
  604.50  4.0121E-002  
  605.00  4.0087E-002  
  605.50  4.0039E-002  
  606.00  4.0033E-002  
  606.50  3.9971E-002  
  607.00  3.9966E-002  
  607.50  3.9979E-002  
  608.00  3.9984E-002  
  608.50  4.0012E-002  
  609.00  3.9993E-002  
  609.50  3.9933E-002  
  610.00  3.9854E-002  
  610.50  3.9826E-002  
  611.00  3.9894E-002  
  611.50  3.9948E-002  
  612.00  3.9943E-002  
  612.50  3.9847E-002  
  613.00  3.9775E-002  
  613.50  3.9616E-002  
  614.00  3.9494E-002  
  614.50  3.9330E-002  
  615.00  3.9218E-002  
  615.50  3.9131E-002  
  616.00  3.9119E-002  
  616.50  3.9062E-002  
  617.00  3.8955E-002  
  617.50  3.8871E-002  
  618.00  3.8854E-002  
  618.50  3.8826E-002  
  619.00  3.8637E-002  
  619.50  3.8483E-002  
  620.00  3.8254E-002  
  620.50  3.8134E-002  
  621.00  3.8014E-002  
  621.50  3.7876E-002  
  622.00  3.7683E-002  
  622.50  3.7503E-002  
  623.00  3.7446E-002  
  623.50  3.7413E-002  
  624.00  3.7307E-002  
  624.50  3.7045E-002  
  625.00  3.6871E-002  
  625.50  3.6718E-002  
  626.00  3.6597E-002  
  626.50  3.6407E-002  
  627.00  3.6245E-002  
  627.50  3.6187E-002  
  628.00  3.6129E-002  
  628.50  3.5960E-002  
  629.00  3.5720E-002  
  629.50  3.5533E-002  
  630.00  3.5415E-002  
  630.50  3.5290E-002  
  631.00  3.5105E-002  
  631.50  3.4916E-002  
  632.00  3.4713E-002  
  632.50  3.4520E-002  
  633.00  3.4349E-002  
  633.50  3.4316E-002  
  634.00  3.4222E-002  
  634.50  3.4050E-002  
  635.00  3.3830E-002  
  635.50  3.3580E-002  
  636.00  3.3399E-002  
  636.50  3.3099E-002  
  637.00  3.2902E-002  
  637.50  3.2671E-002  
  638.00  3.2428E-002  
  638.50  3.2182E-002  
  639.00  3.1992E-002  
  639.50  3.1906E-002  
  640.00  3.1700E-002  
  640.50  3.1445E-002  
  641.00  3.1134E-002  
  641.50  3.0986E-002  
  642.00  3.0939E-002  
  642.50  3.0870E-002  
  643.00  3.0672E-002  
  643.50  3.0368E-002  
  644.00  3.0042E-002  
  644.50  2.9719E-002  
  645.00  2.9543E-002  
  645.50  2.9312E-002  
  646.00  2.9193E-002  
  646.50  2.8962E-002  
  647.00  2.8746E-002  
  647.50  2.8488E-002  
  648.00  2.8229E-002  
  648.50  2.8094E-002  
  649.00  2.7967E-002  
  649.50  2.7800E-002  
  650.00  2.7513E-002  
  650.50  2.7167E-002  
  651.00  2.6843E-002  
  651.50  2.6628E-002  
  652.00  2.6505E-002  
  652.50  2.6355E-002  
  653.00  2.6081E-002  
  653.50  2.5732E-002  
  654.00  2.5368E-002  
  654.50  2.5152E-002  
  655.00  2.4977E-002  
  655.50  2.4851E-002  
  656.00  2.4681E-002  
  656.50  2.4453E-002  
  657.00  2.4259E-002  
  657.50  2.4074E-002  
  658.00  2.3865E-002  
  658.50  2.3671E-002  
  659.00  2.3409E-002  
  659.50  2.3135E-002  
  660.00  2.2825E-002  
  660.50  2.2588E-002  
  661.00  2.2412E-002  
  661.50  2.2227E-002  
  662.00  2.2008E-002  
  662.50  2.1843E-002  
  663.00  2.1619E-002  
  663.50  2.1300E-002  
  664.00  2.0913E-002  
  664.50  2.0717E-002  
  665.00  2.0568E-002  
  665.50  2.0399E-002  
  666.00  2.0099E-002  
  666.50  1.9854E-002  
  667.00  1.9651E-002  
  667.50  1.9424E-002  
  668.00  1.9271E-002  
  668.50  1.9148E-002  
  669.00  1.8957E-002  
  669.50  1.8715E-002  
  670.00  1.8497E-002  
  670.50  1.8281E-002  
  671.00  1.8068E-002  
  671.50  1.7855E-002  
  672.00  1.7673E-002  
  672.50  1.7396E-002  
  673.00  1.7128E-002  
  673.50  1.7021E-002  
  674.00  1.6930E-002  
  674.50  1.6818E-002  
  675.00  1.6501E-002  
  675.50  1.6278E-002  
  676.00  1.6041E-002  
  676.50  1.5940E-002  
  677.00  1.5826E-002  
  677.50  1.5675E-002  
  678.00  1.5471E-002  
  678.50  1.5258E-002  
  679.00  1.4988E-002  
  679.50  1.4757E-002  
  680.00  1.4528E-002  
