
# From lspdd.org
# 
# Name: DEL TCP PAR20 Domestique
# Indice spectral Valeur 
# MSI 0.25 
# SLI 0.44 
# IPI 0.67 
# Pourcentage de bleu 16.2 
# Caractéristique Valeur 
# CCT calculée (K) 2402 
# CCT du fabricant (K) 2400 
# Tension (V) 120 
# Puissance (W) 10.0 
# Efficacité lumineuse (Lum/W) 60.0 
#
# Image: '/app/system/img_2s/2634/medium_image2.JPG?1423776232'
# Image: '/app/system/img_1s/2634/medium_image1.jpg?1423776228'
# 

  273.00  0.0000E+000  
  273.50  0.0000E+000  
  274.00  0.0000E+000  
  274.50  0.0000E+000  
  275.00  0.0000E+000  
  275.50  0.0000E+000  
  276.00  0.0000E+000  
  276.50  0.0000E+000  
  277.00  0.0000E+000  
  277.50  0.0000E+000  
  278.00  0.0000E+000  
  278.50  0.0000E+000  
  279.00  0.0000E+000  
  279.50  0.0000E+000  
  280.00  0.0000E+000  
  280.50  0.0000E+000  
  281.00  0.0000E+000  
  281.50  0.0000E+000  
  282.00  0.0000E+000  
  282.50  0.0000E+000  
  283.00  0.0000E+000  
  283.50  0.0000E+000  
  284.00  0.0000E+000  
  284.50  0.0000E+000  
  285.00  0.0000E+000  
  285.50  0.0000E+000  
  286.00  0.0000E+000  
  286.50  0.0000E+000  
  287.00  0.0000E+000  
  287.50  0.0000E+000  
  288.00  0.0000E+000  
  288.50  0.0000E+000  
  289.00  0.0000E+000  
  289.50  0.0000E+000  
  290.00  0.0000E+000  
  290.50  0.0000E+000  
  291.00  0.0000E+000  
  291.50  0.0000E+000  
  292.00  0.0000E+000  
  292.50  0.0000E+000  
  293.00  0.0000E+000  
  293.50  0.0000E+000  
  294.00  0.0000E+000  
  294.50  0.0000E+000  
  295.00  0.0000E+000  
  295.50  0.0000E+000  
  296.00  0.0000E+000  
  296.50  0.0000E+000  
  297.00  0.0000E+000  
  297.50  0.0000E+000  
  298.00  0.0000E+000  
  298.50  0.0000E+000  
  299.00  0.0000E+000  
  299.50  0.0000E+000  
  300.00  2.3420E-006  
  300.50  7.7376E-006  
  301.00  4.0546E-005  
  301.50  1.1211E-004  
  302.00  2.1460E-004  
  302.50  2.6819E-004  
  303.00  2.6456E-004  
  303.50  2.0827E-004  
  304.00  1.5164E-004  
  304.50  9.2457E-005  
  305.00  1.5502E-005  
  305.50  6.3330E-006  
  306.00  7.6281E-005  
  306.50  2.2404E-004  
  307.00  3.8381E-004  
  307.50  3.5032E-004  
  308.00  2.4596E-004  
  308.50  1.6772E-004  
  309.00  1.0940E-004  
  309.50  8.2202E-005  
  310.00  8.7116E-005  
  310.50  6.0316E-005  
  311.00  3.4614E-005  
  311.50  6.5560E-005  
  312.00  1.4879E-004  
  312.50  1.8377E-004  
  313.00  2.5724E-004  
  313.50  2.5308E-004  
  314.00  1.5773E-004  
  314.50  1.1157E-004  
  315.00  6.4990E-005  
  315.50  1.0448E-004  
  316.00  1.1992E-004  
  316.50  1.2262E-004  
  317.00  1.2694E-004  
  317.50  1.0074E-004  
  318.00  4.4114E-005  
  318.50  5.3288E-005  
  319.00  2.1179E-005  
  319.50  1.3158E-005  
  320.00  3.3596E-005  
  320.50  2.5464E-005  
  321.00  0.0000E+000  
  321.50  0.0000E+000  
  322.00  0.0000E+000  
  322.50  0.0000E+000  
  323.00  0.0000E+000  
  323.50  3.5683E-005  
  324.00  1.1227E-004  
  324.50  1.6744E-004  
  325.00  1.7971E-004  
  325.50  1.7038E-004  
  326.00  2.1948E-004  
  326.50  2.1749E-004  
  327.00  2.6585E-004  
  327.50  2.7349E-004  
  328.00  2.4558E-004  
  328.50  2.0119E-004  
  329.00  1.5854E-004  
  329.50  1.7901E-004  
  330.00  2.1228E-004  
  330.50  2.1915E-004  
  331.00  1.8773E-004  
  331.50  1.5855E-004  
  332.00  1.3847E-004  
  332.50  1.5600E-004  
  333.00  1.5756E-004  
  333.50  1.6904E-004  
  334.00  1.8269E-004  
  334.50  1.8343E-004  
  335.00  1.6928E-004  
  335.50  1.0520E-004  
  336.00  8.1186E-005  
  336.50  9.3688E-005  
  337.00  1.2803E-004  
  337.50  1.6495E-004  
  338.00  1.8567E-004  
  338.50  1.7506E-004  
  339.00  1.9803E-004  
  339.50  1.9247E-004  
  340.00  1.7838E-004  
  340.50  1.4642E-004  
  341.00  9.4956E-005  
  341.50  9.0892E-005  
  342.00  6.9793E-005  
  342.50  3.8922E-005  
  343.00  7.5141E-006  
  343.50  5.4720E-005  
  344.00  8.8979E-005  
  344.50  1.9446E-004  
  345.00  2.4806E-004  
  345.50  2.2203E-004  
  346.00  2.7402E-004  
  346.50  2.7790E-004  
  347.00  3.2465E-004  
  347.50  3.5936E-004  
  348.00  3.1996E-004  
  348.50  2.7548E-004  
  349.00  2.6822E-004  
  349.50  2.5130E-004  
  350.00  2.5088E-004  
  350.50  1.9755E-004  
  351.00  1.5462E-004  
  351.50  1.5446E-004  
  352.00  1.3003E-004  
  352.50  1.6136E-004  
  353.00  1.0693E-004  
  353.50  8.9239E-005  
  354.00  1.4388E-004  
  354.50  1.1664E-004  
  355.00  1.2542E-004  
  355.50  1.1809E-004  
  356.00  8.4844E-005  
  356.50  1.0391E-004  
  357.00  1.2804E-004  
  357.50  1.5446E-004  
  358.00  1.3414E-004  
  358.50  1.3582E-004  
  359.00  1.1597E-004  
  359.50  1.0470E-004  
  360.00  1.8133E-004  
  360.50  1.9291E-004  
  361.00  1.7368E-004  
  361.50  1.3237E-004  
  362.00  1.4235E-004  
  362.50  1.8590E-004  
  363.00  2.3400E-004  
  363.50  2.1877E-004  
  364.00  1.4422E-004  
  364.50  1.3054E-004  
  365.00  1.3680E-004  
  365.50  1.7573E-004  
  366.00  1.8486E-004  
  366.50  1.6318E-004  
  367.00  1.6803E-004  
  367.50  1.6199E-004  
  368.00  1.8468E-004  
  368.50  2.0171E-004  
  369.00  1.7462E-004  
  369.50  1.4344E-004  
  370.00  1.3872E-004  
  370.50  1.0644E-004  
  371.00  3.6673E-005  
  371.50  0.0000E+000  
  372.00  0.0000E+000  
  372.50  0.0000E+000  
  373.00  1.0370E-005  
  373.50  9.6796E-005  
  374.00  1.3872E-004  
  374.50  1.3046E-004  
  375.00  1.6240E-004  
  375.50  1.7987E-004  
  376.00  1.7094E-004  
  376.50  1.9620E-004  
  377.00  1.8378E-004  
  377.50  1.2020E-004  
  378.00  7.8292E-005  
  378.50  2.1773E-005  
  379.00  2.1058E-006  
  379.50  3.4065E-005  
  380.00  6.7349E-005  
  380.50  1.1490E-004  
  381.00  1.8223E-004  
  381.50  2.3726E-004  
  382.00  3.0659E-004  
  382.50  3.4500E-004  
  383.00  3.7235E-004  
  383.50  3.8253E-004  
  384.00  3.5689E-004  
  384.50  3.3659E-004  
  385.00  2.5674E-004  
  385.50  1.1623E-004  
  386.00  5.1596E-005  
  386.50  7.0281E-006  
  387.00  8.8045E-005  
  387.50  1.9644E-004  
  388.00  2.8194E-004  
  388.50  2.9126E-004  
  389.00  2.6130E-004  
  389.50  1.5756E-004  
  390.00  6.4303E-005  
  390.50  1.5672E-005  
  391.00  4.4517E-005  
  391.50  1.2263E-004  
  392.00  2.0792E-004  
  392.50  2.4888E-004  
  393.00  2.7534E-004  
  393.50  2.5841E-004  
  394.00  1.8388E-004  
  394.50  1.1222E-004  
  395.00  5.0902E-005  
  395.50  3.2251E-005  
  396.00  5.8906E-005  
  396.50  9.7961E-005  
  397.00  1.2558E-004  
  397.50  1.5487E-004  
  398.00  1.2842E-004  
  398.50  1.0772E-004  
  399.00  1.0798E-004  
  399.50  1.5016E-004  
  400.00  2.0836E-004  
  400.50  1.7937E-004  
  401.00  1.3080E-004  
  401.50  6.5157E-005  
  402.00  8.2654E-005  
  402.50  1.4292E-004  
  403.00  2.2605E-004  
  403.50  2.8813E-004  
  404.00  2.8027E-004  
  404.50  2.5434E-004  
  405.00  2.4766E-004  
  405.50  2.5341E-004  
  406.00  2.8923E-004  
  406.50  2.8312E-004  
  407.00  2.6792E-004  
  407.50  2.9474E-004  
  408.00  2.7786E-004  
  408.50  2.6417E-004  
  409.00  2.4975E-004  
  409.50  2.3269E-004  
  410.00  2.2122E-004  
  410.50  2.3021E-004  
  411.00  2.1816E-004  
  411.50  2.4620E-004  
  412.00  3.0441E-004  
  412.50  3.6206E-004  
  413.00  4.1359E-004  
  413.50  4.7615E-004  
  414.00  5.2196E-004  
  414.50  5.8818E-004  
  415.00  6.3972E-004  
  415.50  6.1838E-004  
  416.00  5.7030E-004  
  416.50  5.0402E-004  
  417.00  5.0297E-004  
  417.50  5.5251E-004  
  418.00  6.3182E-004  
  418.50  7.3813E-004  
  419.00  7.8153E-004  
  419.50  7.4884E-004  
  420.00  7.6087E-004  
  420.50  7.4466E-004  
  421.00  7.8363E-004  
  421.50  8.7816E-004  
  422.00  9.0440E-004  
  422.50  9.8364E-004  
  423.00  1.0577E-003  
  423.50  1.1130E-003  
  424.00  1.1879E-003  
  424.50  1.2783E-003  
  425.00  1.3702E-003  
  425.50  1.4870E-003  
  426.00  1.5716E-003  
  426.50  1.6471E-003  
  427.00  1.7611E-003  
  427.50  1.9150E-003  
  428.00  2.0995E-003  
  428.50  2.3413E-003  
  429.00  2.5172E-003  
  429.50  2.6520E-003  
  430.00  2.7495E-003  
  430.50  2.7989E-003  
  431.00  2.8624E-003  
  431.50  2.9645E-003  
  432.00  3.1024E-003  
  432.50  3.2913E-003  
  433.00  3.5776E-003  
  433.50  3.8925E-003  
  434.00  4.2648E-003  
  434.50  4.5535E-003  
  435.00  4.8038E-003  
  435.50  5.0026E-003  
  436.00  5.1765E-003  
  436.50  5.4402E-003  
  437.00  5.7744E-003  
  437.50  6.1710E-003  
  438.00  6.6154E-003  
  438.50  6.9916E-003  
  439.00  7.3048E-003  
  439.50  7.6461E-003  
  440.00  7.9842E-003  
  440.50  8.3740E-003  
  441.00  8.7907E-003  
  441.50  9.2175E-003  
  442.00  9.6014E-003  
  442.50  1.0118E-002  
  443.00  1.0654E-002  
  443.50  1.1258E-002  
  444.00  1.1846E-002  
  444.50  1.2358E-002  
  445.00  1.2889E-002  
  445.50  1.3445E-002  
  446.00  1.4027E-002  
  446.50  1.4687E-002  
  447.00  1.5392E-002  
  447.50  1.6074E-002  
  448.00  1.6759E-002  
  448.50  1.7339E-002  
  449.00  1.7815E-002  
  449.50  1.8296E-002  
  450.00  1.8861E-002  
  450.50  1.9498E-002  
  451.00  2.0150E-002  
  451.50  2.0575E-002  
  452.00  2.0884E-002  
  452.50  2.1074E-002  
  453.00  2.1243E-002  
  453.50  2.1363E-002  
  454.00  2.1381E-002  
  454.50  2.1269E-002  
  455.00  2.1092E-002  
  455.50  2.0791E-002  
  456.00  2.0426E-002  
  456.50  2.0098E-002  
  457.00  1.9740E-002  
  457.50  1.9432E-002  
  458.00  1.8999E-002  
  458.50  1.8542E-002  
  459.00  1.8032E-002  
  459.50  1.7413E-002  
  460.00  1.6825E-002  
  460.50  1.6232E-002  
  461.00  1.5786E-002  
  461.50  1.5347E-002  
  462.00  1.4899E-002  
  462.50  1.4452E-002  
  463.00  1.4105E-002  
  463.50  1.3775E-002  
  464.00  1.3455E-002  
  464.50  1.3105E-002  
  465.00  1.2781E-002  
  465.50  1.2473E-002  
  466.00  1.2202E-002  
  466.50  1.1973E-002  
  467.00  1.1793E-002  
  467.50  1.1651E-002  
  468.00  1.1466E-002  
  468.50  1.1244E-002  
  469.00  1.0995E-002  
  469.50  1.0735E-002  
  470.00  1.0503E-002  
  470.50  1.0380E-002  
  471.00  1.0268E-002  
  471.50  1.0126E-002  
  472.00  9.9102E-003  
  472.50  9.6809E-003  
  473.00  9.4281E-003  
  473.50  9.2952E-003  
  474.00  9.2046E-003  
  474.50  9.1534E-003  
  475.00  9.1204E-003  
  475.50  9.0206E-003  
  476.00  8.8466E-003  
  476.50  8.6523E-003  
  477.00  8.4742E-003  
  477.50  8.3728E-003  
  478.00  8.3540E-003  
  478.50  8.3477E-003  
  479.00  8.3176E-003  
  479.50  8.2806E-003  
  480.00  8.2608E-003  
  480.50  8.2386E-003  
  481.00  8.2009E-003  
  481.50  8.1679E-003  
  482.00  8.1346E-003  
  482.50  8.1568E-003  
  483.00  8.1993E-003  
  483.50  8.2645E-003  
  484.00  8.3668E-003  
  484.50  8.4474E-003  
  485.00  8.5629E-003  
  485.50  8.6962E-003  
  486.00  8.8508E-003  
  486.50  8.9428E-003  
  487.00  9.0255E-003  
  487.50  9.0912E-003  
  488.00  9.1934E-003  
  488.50  9.2989E-003  
  489.00  9.4139E-003  
  489.50  9.5676E-003  
  490.00  9.7249E-003  
  490.50  9.8751E-003  
  491.00  1.0037E-002  
  491.50  1.0211E-002  
  492.00  1.0450E-002  
  492.50  1.0664E-002  
  493.00  1.0853E-002  
  493.50  1.1027E-002  
  494.00  1.1202E-002  
  494.50  1.1383E-002  
  495.00  1.1604E-002  
  495.50  1.1831E-002  
  496.00  1.2075E-002  
  496.50  1.2303E-002  
  497.00  1.2562E-002  
  497.50  1.2824E-002  
  498.00  1.3103E-002  
  498.50  1.3346E-002  
  499.00  1.3571E-002  
  499.50  1.3800E-002  
  500.00  1.4025E-002  
  500.50  1.4283E-002  
  501.00  1.4487E-002  
  501.50  1.4750E-002  
  502.00  1.5017E-002  
  502.50  1.5332E-002  
  503.00  1.5665E-002  
  503.50  1.5950E-002  
  504.00  1.6205E-002  
  504.50  1.6393E-002  
  505.00  1.6569E-002  
  505.50  1.6798E-002  
  506.00  1.7087E-002  
  506.50  1.7392E-002  
  507.00  1.7695E-002  
  507.50  1.7906E-002  
  508.00  1.8107E-002  
  508.50  1.8286E-002  
  509.00  1.8476E-002  
  509.50  1.8688E-002  
  510.00  1.8941E-002  
  510.50  1.9240E-002  
  511.00  1.9497E-002  
  511.50  1.9713E-002  
  512.00  1.9894E-002  
  512.50  2.0089E-002  
  513.00  2.0331E-002  
  513.50  2.0554E-002  
  514.00  2.0744E-002  
  514.50  2.0928E-002  
  515.00  2.1087E-002  
  515.50  2.1297E-002  
  516.00  2.1507E-002  
  516.50  2.1700E-002  
  517.00  2.1846E-002  
  517.50  2.1955E-002  
  518.00  2.2080E-002  
  518.50  2.2230E-002  
  519.00  2.2374E-002  
  519.50  2.2502E-002  
  520.00  2.2659E-002  
  520.50  2.2810E-002  
  521.00  2.2974E-002  
  521.50  2.3124E-002  
  522.00  2.3296E-002  
  522.50  2.3477E-002  
  523.00  2.3631E-002  
  523.50  2.3752E-002  
  524.00  2.3873E-002  
  524.50  2.3987E-002  
  525.00  2.4032E-002  
  525.50  2.4155E-002  
  526.00  2.4286E-002  
  526.50  2.4469E-002  
  527.00  2.4606E-002  
  527.50  2.4660E-002  
  528.00  2.4804E-002  
  528.50  2.4916E-002  
  529.00  2.5001E-002  
  529.50  2.5068E-002  
  530.00  2.5167E-002  
  530.50  2.5341E-002  
  531.00  2.5465E-002  
  531.50  2.5552E-002  
  532.00  2.5597E-002  
  532.50  2.5687E-002  
  533.00  2.5781E-002  
  533.50  2.5872E-002  
  534.00  2.5974E-002  
  534.50  2.6067E-002  
  535.00  2.6241E-002  
  535.50  2.6346E-002  
  536.00  2.6477E-002  
  536.50  2.6591E-002  
  537.00  2.6730E-002  
  537.50  2.6869E-002  
  538.00  2.6964E-002  
  538.50  2.7062E-002  
  539.00  2.7148E-002  
  539.50  2.7251E-002  
  540.00  2.7324E-002  
  540.50  2.7392E-002  
  541.00  2.7481E-002  
  541.50  2.7557E-002  
  542.00  2.7690E-002  
  542.50  2.7812E-002  
  543.00  2.8020E-002  
  543.50  2.8170E-002  
  544.00  2.8331E-002  
  544.50  2.8483E-002  
  545.00  2.8615E-002  
  545.50  2.8802E-002  
  546.00  2.8939E-002  
  546.50  2.9140E-002  
  547.00  2.9300E-002  
  547.50  2.9503E-002  
  548.00  2.9658E-002  
  548.50  2.9820E-002  
  549.00  2.9978E-002  
  549.50  3.0129E-002  
  550.00  3.0328E-002  
  550.50  3.0560E-002  
  551.00  3.0778E-002  
  551.50  3.1034E-002  
  552.00  3.1251E-002  
  552.50  3.1472E-002  
  553.00  3.1612E-002  
  553.50  3.1763E-002  
  554.00  3.1972E-002  
  554.50  3.2320E-002  
  555.00  3.2638E-002  
  555.50  3.2921E-002  
  556.00  3.3174E-002  
  556.50  3.3473E-002  
  557.00  3.3782E-002  
  557.50  3.4114E-002  
  558.00  3.4443E-002  
  558.50  3.4735E-002  
  559.00  3.5037E-002  
  559.50  3.5321E-002  
  560.00  3.5676E-002  
  560.50  3.6043E-002  
  561.00  3.6441E-002  
  561.50  3.6838E-002  
  562.00  3.7206E-002  
  562.50  3.7610E-002  
  563.00  3.8001E-002  
  563.50  3.8435E-002  
  564.00  3.8795E-002  
  564.50  3.9104E-002  
  565.00  3.9378E-002  
  565.50  3.9700E-002  
  566.00  4.0195E-002  
  566.50  4.0736E-002  
  567.00  4.1235E-002  
  567.50  4.1724E-002  
  568.00  4.2088E-002  
  568.50  4.2631E-002  
  569.00  4.3166E-002  
  569.50  4.3667E-002  
  570.00  4.4114E-002  
  570.50  4.4513E-002  
  571.00  4.5035E-002  
  571.50  4.5549E-002  
  572.00  4.6051E-002  
  572.50  4.6606E-002  
  573.00  4.7214E-002  
  573.50  4.7816E-002  
  574.00  4.8310E-002  
  574.50  4.8755E-002  
  575.00  4.9321E-002  
  575.50  4.9859E-002  
  576.00  5.0407E-002  
  576.50  5.0948E-002  
  577.00  5.1565E-002  
  577.50  5.2143E-002  
  578.00  5.2669E-002  
  578.50  5.3198E-002  
  579.00  5.3714E-002  
  579.50  5.4159E-002  
  580.00  5.4543E-002  
  580.50  5.5000E-002  
  581.00  5.5555E-002  
  581.50  5.6176E-002  
  582.00  5.6745E-002  
  582.50  5.7392E-002  
  583.00  5.8030E-002  
  583.50  5.8689E-002  
  584.00  5.9196E-002  
  584.50  5.9687E-002  
  585.00  6.0159E-002  
  585.50  6.0718E-002  
  586.00  6.1157E-002  
  586.50  6.1634E-002  
  587.00  6.2139E-002  
  587.50  6.2710E-002  
  588.00  6.3265E-002  
  588.50  6.3718E-002  
  589.00  6.4217E-002  
  589.50  6.4731E-002  
  590.00  6.5152E-002  
  590.50  6.5589E-002  
  591.00  6.6037E-002  
  591.50  6.6571E-002  
  592.00  6.7002E-002  
  592.50  6.7360E-002  
  593.00  6.7642E-002  
  593.50  6.7929E-002  
  594.00  6.8283E-002  
  594.50  6.8635E-002  
  595.00  6.8996E-002  
  595.50  6.9343E-002  
  596.00  6.9698E-002  
  596.50  7.0088E-002  
  597.00  7.0305E-002  
  597.50  7.0501E-002  
  598.00  7.0663E-002  
  598.50  7.0917E-002  
  599.00  7.1144E-002  
  599.50  7.1345E-002  
  600.00  7.1550E-002  
  600.50  7.1644E-002  
  601.00  7.1799E-002  
  601.50  7.2003E-002  
  602.00  7.2314E-002  
  602.50  7.2595E-002  
  603.00  7.2713E-002  
  603.50  7.2679E-002  
  604.00  7.2591E-002  
  604.50  7.2534E-002  
  605.00  7.2581E-002  
  605.50  7.2656E-002  
  606.00  7.2849E-002  
  606.50  7.3015E-002  
  607.00  7.2998E-002  
  607.50  7.2875E-002  
  608.00  7.2804E-002  
  608.50  7.2873E-002  
  609.00  7.2913E-002  
  609.50  7.2845E-002  
  610.00  7.2655E-002  
  610.50  7.2490E-002  
  611.00  7.2387E-002  
  611.50  7.2249E-002  
  612.00  7.2121E-002  
  612.50  7.2033E-002  
  613.00  7.2106E-002  
  613.50  7.2043E-002  
  614.00  7.1775E-002  
  614.50  7.1482E-002  
  615.00  7.1150E-002  
  615.50  7.0846E-002  
  616.00  7.0452E-002  
  616.50  7.0116E-002  
  617.00  6.9963E-002  
  617.50  6.9846E-002  
  618.00  6.9677E-002  
  618.50  6.9351E-002  
  619.00  6.8912E-002  
  619.50  6.8551E-002  
  620.00  6.8251E-002  
  620.50  6.7991E-002  
  621.00  6.7586E-002  
  621.50  6.7213E-002  
  622.00  6.6865E-002  
  622.50  6.6556E-002  
  623.00  6.6205E-002  
  623.50  6.5811E-002  
  624.00  6.5476E-002  
  624.50  6.5056E-002  
  625.00  6.4654E-002  
  625.50  6.4253E-002  
  626.00  6.3861E-002  
  626.50  6.3500E-002  
  627.00  6.3153E-002  
  627.50  6.2669E-002  
  628.00  6.2130E-002  
  628.50  6.1632E-002  
  629.00  6.1303E-002  
  629.50  6.0940E-002  
  630.00  6.0532E-002  
  630.50  6.0041E-002  
  631.00  5.9551E-002  
  631.50  5.9008E-002  
  632.00  5.8516E-002  
  632.50  5.8112E-002  
  633.00  5.7776E-002  
  633.50  5.7445E-002  
  634.00  5.7112E-002  
  634.50  5.6677E-002  
  635.00  5.6178E-002  
  635.50  5.5580E-002  
  636.00  5.4974E-002  
  636.50  5.4433E-002  
  637.00  5.3987E-002  
  637.50  5.3579E-002  
  638.00  5.3220E-002  
  638.50  5.2755E-002  
  639.00  5.2302E-002  
  639.50  5.1737E-002  
  640.00  5.1217E-002  
  640.50  5.0776E-002  
  641.00  5.0392E-002  
  641.50  4.9996E-002  
  642.00  4.9523E-002  
  642.50  4.8978E-002  
  643.00  4.8408E-002  
  643.50  4.7819E-002  
  644.00  4.7340E-002  
  644.50  4.6906E-002  
  645.00  4.6537E-002  
  645.50  4.5964E-002  
  646.00  4.5429E-002  
  646.50  4.4850E-002  
  647.00  4.4373E-002  
  647.50  4.3779E-002  
  648.00  4.3213E-002  
  648.50  4.2730E-002  
  649.00  4.2390E-002  
  649.50  4.1953E-002  
  650.00  4.1485E-002  
  650.50  4.0862E-002  
  651.00  4.0427E-002  
  651.50  4.0047E-002  
  652.00  3.9682E-002  
  652.50  3.9178E-002  
  653.00  3.8652E-002  
  653.50  3.8105E-002  
  654.00  3.7685E-002  
  654.50  3.7269E-002  
  655.00  3.6914E-002  
  655.50  3.6502E-002  
  656.00  3.5960E-002  
  656.50  3.5523E-002  
  657.00  3.4931E-002  
  657.50  3.4470E-002  
  658.00  3.3989E-002  
  658.50  3.3725E-002  
  659.00  3.3340E-002  
  659.50  3.2928E-002  
  660.00  3.2395E-002  
  660.50  3.1924E-002  
  661.00  3.1471E-002  
  661.50  3.1153E-002  
  662.00  3.0748E-002  
  662.50  3.0342E-002  
  663.00  2.9755E-002  
  663.50  2.9277E-002  
  664.00  2.8783E-002  
  664.50  2.8483E-002  
  665.00  2.8271E-002  
  665.50  2.8043E-002  
  666.00  2.7705E-002  
  666.50  2.7264E-002  
  667.00  2.6832E-002  
  667.50  2.6422E-002  
  668.00  2.6071E-002  
  668.50  2.5775E-002  
  669.00  2.5421E-002  
  669.50  2.4984E-002  
  670.00  2.4517E-002  
  670.50  2.4029E-002  
  671.00  2.3694E-002  
  671.50  2.3435E-002  
  672.00  2.3262E-002  
  672.50  2.2979E-002  
  673.00  2.2606E-002  
  673.50  2.2230E-002  
  674.00  2.1842E-002  
  674.50  2.1489E-002  
  675.00  2.1131E-002  
  675.50  2.0935E-002  
  676.00  2.0729E-002  
  676.50  2.0521E-002  
  677.00  2.0194E-002  
  677.50  1.9825E-002  
  678.00  1.9430E-002  
  678.50  1.9063E-002  
  679.00  1.8726E-002  
  679.50  1.8406E-002  
  680.00  1.8069E-002  
