
# From lspdd.org
# 
# Name: DEL Philips MR16 Domestique
# Indice spectral Valeur 
# MSI 0.25 
# SLI 0.45 
# IPI 0.69 
# Pourcentage de bleu 16.1 
# Caractéristique Valeur 
# CCT calculée (K) 2542 
# CCT du fabricant (K) 2700 
# Tension (V) 120 
# Puissance (W) 10.0 
# Efficacité lumineuse (Lum/W) 65.0 
#
# Image: '/app/system/img_2s/2635/medium_image2.JPG?1423776240'
# Image: '/app/system/img_1s/2635/medium_image1.JPG?1423776237'
# 

  273.00  0.0000E+000  
  273.50  0.0000E+000  
  274.00  0.0000E+000  
  274.50  0.0000E+000  
  275.00  0.0000E+000  
  275.50  0.0000E+000  
  276.00  0.0000E+000  
  276.50  0.0000E+000  
  277.00  0.0000E+000  
  277.50  0.0000E+000  
  278.00  0.0000E+000  
  278.50  0.0000E+000  
  279.00  0.0000E+000  
  279.50  0.0000E+000  
  280.00  0.0000E+000  
  280.50  0.0000E+000  
  281.00  0.0000E+000  
  281.50  0.0000E+000  
  282.00  0.0000E+000  
  282.50  0.0000E+000  
  283.00  0.0000E+000  
  283.50  0.0000E+000  
  284.00  0.0000E+000  
  284.50  0.0000E+000  
  285.00  0.0000E+000  
  285.50  0.0000E+000  
  286.00  0.0000E+000  
  286.50  0.0000E+000  
  287.00  0.0000E+000  
  287.50  0.0000E+000  
  288.00  0.0000E+000  
  288.50  0.0000E+000  
  289.00  0.0000E+000  
  289.50  0.0000E+000  
  290.00  0.0000E+000  
  290.50  0.0000E+000  
  291.00  0.0000E+000  
  291.50  0.0000E+000  
  292.00  0.0000E+000  
  292.50  0.0000E+000  
  293.00  0.0000E+000  
  293.50  0.0000E+000  
  294.00  0.0000E+000  
  294.50  0.0000E+000  
  295.00  0.0000E+000  
  295.50  0.0000E+000  
  296.00  0.0000E+000  
  296.50  0.0000E+000  
  297.00  0.0000E+000  
  297.50  0.0000E+000  
  298.00  0.0000E+000  
  298.50  0.0000E+000  
  299.00  0.0000E+000  
  299.50  0.0000E+000  
  300.00  5.9527E-006  
  300.50  1.8728E-005  
  301.00  5.9847E-005  
  301.50  1.1831E-004  
  302.00  1.8477E-004  
  302.50  1.7871E-004  
  303.00  8.8872E-005  
  303.50  4.6433E-005  
  304.00  6.8914E-005  
  304.50  1.2675E-004  
  305.00  1.2687E-004  
  305.50  1.3761E-004  
  306.00  1.5007E-004  
  306.50  1.4530E-004  
  307.00  2.0341E-004  
  307.50  1.9677E-004  
  308.00  1.1670E-004  
  308.50  6.8671E-005  
  309.00  8.1502E-006  
  309.50  0.0000E+000  
  310.00  0.0000E+000  
  310.50  0.0000E+000  
  311.00  4.3302E-006  
  311.50  6.7788E-005  
  312.00  1.4275E-004  
  312.50  1.5395E-004  
  313.00  2.0061E-004  
  313.50  2.0849E-004  
  314.00  1.7551E-004  
  314.50  2.5608E-004  
  315.00  3.0022E-004  
  315.50  2.8242E-004  
  316.00  2.2908E-004  
  316.50  1.2192E-004  
  317.00  9.9670E-005  
  317.50  1.3747E-004  
  318.00  1.6652E-004  
  318.50  1.7164E-004  
  319.00  1.5062E-004  
  319.50  7.0248E-005  
  320.00  1.5259E-005  
  320.50  0.0000E+000  
  321.00  0.0000E+000  
  321.50  0.0000E+000  
  322.00  0.0000E+000  
  322.50  0.0000E+000  
  323.00  0.0000E+000  
  323.50  0.0000E+000  
  324.00  0.0000E+000  
  324.50  0.0000E+000  
  325.00  2.7554E-005  
  325.50  4.7923E-005  
  326.00  8.7001E-005  
  326.50  7.1030E-005  
  327.00  6.6335E-005  
  327.50  8.7471E-005  
  328.00  1.1237E-004  
  328.50  1.4384E-004  
  329.00  1.6024E-004  
  329.50  2.0504E-004  
  330.00  2.3170E-004  
  330.50  1.9150E-004  
  331.00  1.3308E-004  
  331.50  4.1902E-005  
  332.00  0.0000E+000  
  332.50  0.0000E+000  
  333.00  0.0000E+000  
  333.50  0.0000E+000  
  334.00  1.2839E-005  
  334.50  1.1661E-004  
  335.00  1.6876E-004  
  335.50  1.5065E-004  
  336.00  6.6717E-005  
  336.50  2.2174E-005  
  337.00  6.5128E-005  
  337.50  1.1778E-004  
  338.00  1.5632E-004  
  338.50  1.1512E-004  
  339.00  8.5959E-005  
  339.50  2.9261E-005  
  340.00  0.0000E+000  
  340.50  0.0000E+000  
  341.00  0.0000E+000  
  341.50  0.0000E+000  
  342.00  0.0000E+000  
  342.50  0.0000E+000  
  343.00  2.3885E-005  
  343.50  1.2286E-004  
  344.00  1.8604E-004  
  344.50  2.1521E-004  
  345.00  2.6799E-004  
  345.50  2.2065E-004  
  346.00  2.2601E-004  
  346.50  2.6404E-004  
  347.00  2.6770E-004  
  347.50  2.5094E-004  
  348.00  2.0534E-004  
  348.50  1.8693E-004  
  349.00  1.5740E-004  
  349.50  1.1409E-004  
  350.00  1.0870E-004  
  350.50  9.6210E-005  
  351.00  8.5054E-005  
  351.50  1.6002E-004  
  352.00  1.6002E-004  
  352.50  1.3109E-004  
  353.00  1.0717E-004  
  353.50  1.0352E-004  
  354.00  2.3015E-004  
  354.50  3.1987E-004  
  355.00  3.6964E-004  
  355.50  3.1977E-004  
  356.00  2.1518E-004  
  356.50  1.5733E-004  
  357.00  9.5908E-005  
  357.50  5.1969E-005  
  358.00  8.5983E-006  
  358.50  1.1261E-005  
  359.00  5.9823E-005  
  359.50  1.2092E-004  
  360.00  2.0430E-004  
  360.50  2.3987E-004  
  361.00  2.3660E-004  
  361.50  2.1457E-004  
  362.00  1.8970E-004  
  362.50  1.5673E-004  
  363.00  1.0897E-004  
  363.50  6.1932E-005  
  364.00  3.5331E-005  
  364.50  4.1124E-005  
  365.00  6.5977E-005  
  365.50  9.4139E-005  
  366.00  9.9139E-005  
  366.50  1.5014E-004  
  367.00  2.0357E-004  
  367.50  1.5717E-004  
  368.00  1.3176E-004  
  368.50  9.3078E-005  
  369.00  7.6671E-005  
  369.50  1.1697E-004  
  370.00  1.1306E-004  
  370.50  8.6786E-005  
  371.00  2.8203E-005  
  371.50  0.0000E+000  
  372.00  0.0000E+000  
  372.50  0.0000E+000  
  373.00  1.4885E-005  
  373.50  6.9827E-005  
  374.00  1.1008E-004  
  374.50  1.2331E-004  
  375.00  1.3148E-004  
  375.50  8.1127E-005  
  376.00  2.3957E-005  
  376.50  0.0000E+000  
  377.00  0.0000E+000  
  377.50  0.0000E+000  
  378.00  0.0000E+000  
  378.50  0.0000E+000  
  379.00  0.0000E+000  
  379.50  3.6838E-005  
  380.00  4.1762E-005  
  380.50  4.7706E-005  
  381.00  8.7250E-005  
  381.50  1.5906E-004  
  382.00  2.5350E-004  
  382.50  3.1057E-004  
  383.00  3.5652E-004  
  383.50  3.6301E-004  
  384.00  2.9790E-004  
  384.50  2.2433E-004  
  385.00  7.7882E-005  
  385.50  3.0660E-006  
  386.00  0.0000E+000  
  386.50  6.6327E-006  
  387.00  1.0153E-004  
  387.50  1.8407E-004  
  388.00  2.5596E-004  
  388.50  2.5663E-004  
  389.00  2.1408E-004  
  389.50  1.5053E-004  
  390.00  7.4872E-005  
  390.50  4.1057E-006  
  391.00  4.5546E-005  
  391.50  1.0042E-004  
  392.00  1.8463E-004  
  392.50  2.1042E-004  
  393.00  1.8538E-004  
  393.50  2.0285E-004  
  394.00  2.2637E-004  
  394.50  2.4436E-004  
  395.00  2.1071E-004  
  395.50  1.7035E-004  
  396.00  1.4733E-004  
  396.50  1.7219E-004  
  397.00  2.0948E-004  
  397.50  2.2988E-004  
  398.00  2.4007E-004  
  398.50  2.1061E-004  
  399.00  2.2457E-004  
  399.50  2.4901E-004  
  400.00  3.1589E-004  
  400.50  3.1943E-004  
  401.00  2.9175E-004  
  401.50  2.4884E-004  
  402.00  1.8739E-004  
  402.50  2.0737E-004  
  403.00  2.1417E-004  
  403.50  2.6268E-004  
  404.00  2.8716E-004  
  404.50  3.1174E-004  
  405.00  3.6508E-004  
  405.50  4.1136E-004  
  406.00  4.6347E-004  
  406.50  5.1625E-004  
  407.00  5.2577E-004  
  407.50  5.6673E-004  
  408.00  5.7993E-004  
  408.50  5.6752E-004  
  409.00  5.7937E-004  
  409.50  5.7241E-004  
  410.00  5.7251E-004  
  410.50  5.9929E-004  
  411.00  6.6175E-004  
  411.50  7.6328E-004  
  412.00  8.4676E-004  
  412.50  9.0792E-004  
  413.00  9.4564E-004  
  413.50  1.0024E-003  
  414.00  1.0907E-003  
  414.50  1.1922E-003  
  415.00  1.2331E-003  
  415.50  1.2794E-003  
  416.00  1.3426E-003  
  416.50  1.4181E-003  
  417.00  1.5899E-003  
  417.50  1.6967E-003  
  418.00  1.7895E-003  
  418.50  1.9053E-003  
  419.00  2.0253E-003  
  419.50  2.1975E-003  
  420.00  2.4324E-003  
  420.50  2.5723E-003  
  421.00  2.6929E-003  
  421.50  2.7856E-003  
  422.00  2.8728E-003  
  422.50  3.0220E-003  
  423.00  3.2096E-003  
  423.50  3.3618E-003  
  424.00  3.5478E-003  
  424.50  3.7809E-003  
  425.00  4.0302E-003  
  425.50  4.3162E-003  
  426.00  4.6050E-003  
  426.50  4.8345E-003  
  427.00  5.0566E-003  
  427.50  5.2979E-003  
  428.00  5.5258E-003  
  428.50  5.8731E-003  
  429.00  6.2193E-003  
  429.50  6.5390E-003  
  430.00  6.8719E-003  
  430.50  7.1510E-003  
  431.00  7.3816E-003  
  431.50  7.6708E-003  
  432.00  7.9321E-003  
  432.50  8.2395E-003  
  433.00  8.5712E-003  
  433.50  8.9513E-003  
  434.00  9.4046E-003  
  434.50  9.7834E-003  
  435.00  1.0116E-002  
  435.50  1.0399E-002  
  436.00  1.0690E-002  
  436.50  1.1115E-002  
  437.00  1.1543E-002  
  437.50  1.1888E-002  
  438.00  1.2213E-002  
  438.50  1.2513E-002  
  439.00  1.2838E-002  
  439.50  1.3260E-002  
  440.00  1.3614E-002  
  440.50  1.4006E-002  
  441.00  1.4295E-002  
  441.50  1.4600E-002  
  442.00  1.4888E-002  
  442.50  1.5245E-002  
  443.00  1.5592E-002  
  443.50  1.5997E-002  
  444.00  1.6440E-002  
  444.50  1.6892E-002  
  445.00  1.7322E-002  
  445.50  1.7685E-002  
  446.00  1.7957E-002  
  446.50  1.8278E-002  
  447.00  1.8548E-002  
  447.50  1.8793E-002  
  448.00  1.9083E-002  
  448.50  1.9335E-002  
  449.00  1.9572E-002  
  449.50  1.9719E-002  
  450.00  1.9724E-002  
  450.50  1.9740E-002  
  451.00  1.9675E-002  
  451.50  1.9477E-002  
  452.00  1.9157E-002  
  452.50  1.8705E-002  
  453.00  1.8339E-002  
  453.50  1.7996E-002  
  454.00  1.7591E-002  
  454.50  1.7069E-002  
  455.00  1.6435E-002  
  455.50  1.5839E-002  
  456.00  1.5293E-002  
  456.50  1.4756E-002  
  457.00  1.4263E-002  
  457.50  1.3784E-002  
  458.00  1.3298E-002  
  458.50  1.2883E-002  
  459.00  1.2431E-002  
  459.50  1.1986E-002  
  460.00  1.1575E-002  
  460.50  1.1171E-002  
  461.00  1.0865E-002  
  461.50  1.0575E-002  
  462.00  1.0337E-002  
  462.50  1.0156E-002  
  463.00  9.9972E-003  
  463.50  9.8843E-003  
  464.00  9.7441E-003  
  464.50  9.5403E-003  
  465.00  9.4098E-003  
  465.50  9.2768E-003  
  466.00  9.1295E-003  
  466.50  8.9882E-003  
  467.00  8.8258E-003  
  467.50  8.7211E-003  
  468.00  8.6378E-003  
  468.50  8.5099E-003  
  469.00  8.3340E-003  
  469.50  8.1727E-003  
  470.00  8.0254E-003  
  470.50  7.9652E-003  
  471.00  7.8805E-003  
  471.50  7.7278E-003  
  472.00  7.5977E-003  
  472.50  7.4748E-003  
  473.00  7.3799E-003  
  473.50  7.3050E-003  
  474.00  7.2376E-003  
  474.50  7.2097E-003  
  475.00  7.2321E-003  
  475.50  7.2125E-003  
  476.00  7.0894E-003  
  476.50  6.9943E-003  
  477.00  6.9658E-003  
  477.50  6.9858E-003  
  478.00  7.0176E-003  
  478.50  7.0474E-003  
  479.00  7.0535E-003  
  479.50  7.0922E-003  
  480.00  7.1365E-003  
  480.50  7.1826E-003  
  481.00  7.2722E-003  
  481.50  7.3805E-003  
  482.00  7.4535E-003  
  482.50  7.5160E-003  
  483.00  7.5575E-003  
  483.50  7.6707E-003  
  484.00  7.8551E-003  
  484.50  8.0404E-003  
  485.00  8.1777E-003  
  485.50  8.3155E-003  
  486.00  8.4850E-003  
  486.50  8.6647E-003  
  487.00  8.8647E-003  
  487.50  9.0084E-003  
  488.00  9.1954E-003  
  488.50  9.4434E-003  
  489.00  9.6717E-003  
  489.50  9.9218E-003  
  490.00  1.0113E-002  
  490.50  1.0292E-002  
  491.00  1.0542E-002  
  491.50  1.0811E-002  
  492.00  1.1144E-002  
  492.50  1.1424E-002  
  493.00  1.1701E-002  
  493.50  1.1970E-002  
  494.00  1.2311E-002  
  494.50  1.2646E-002  
  495.00  1.3000E-002  
  495.50  1.3340E-002  
  496.00  1.3662E-002  
  496.50  1.3996E-002  
  497.00  1.4352E-002  
  497.50  1.4740E-002  
  498.00  1.5122E-002  
  498.50  1.5425E-002  
  499.00  1.5742E-002  
  499.50  1.6109E-002  
  500.00  1.6503E-002  
  500.50  1.6884E-002  
  501.00  1.7196E-002  
  501.50  1.7530E-002  
  502.00  1.7909E-002  
  502.50  1.8307E-002  
  503.00  1.8679E-002  
  503.50  1.8975E-002  
  504.00  1.9288E-002  
  504.50  1.9610E-002  
  505.00  1.9956E-002  
  505.50  2.0301E-002  
  506.00  2.0596E-002  
  506.50  2.0916E-002  
  507.00  2.1253E-002  
  507.50  2.1577E-002  
  508.00  2.1868E-002  
  508.50  2.2146E-002  
  509.00  2.2339E-002  
  509.50  2.2590E-002  
  510.00  2.2855E-002  
  510.50  2.3184E-002  
  511.00  2.3521E-002  
  511.50  2.3809E-002  
  512.00  2.4088E-002  
  512.50  2.4369E-002  
  513.00  2.4631E-002  
  513.50  2.4872E-002  
  514.00  2.5063E-002  
  514.50  2.5232E-002  
  515.00  2.5446E-002  
  515.50  2.5702E-002  
  516.00  2.5984E-002  
  516.50  2.6259E-002  
  517.00  2.6458E-002  
  517.50  2.6617E-002  
  518.00  2.6740E-002  
  518.50  2.6864E-002  
  519.00  2.7024E-002  
  519.50  2.7202E-002  
  520.00  2.7384E-002  
  520.50  2.7482E-002  
  521.00  2.7630E-002  
  521.50  2.7772E-002  
  522.00  2.7946E-002  
  522.50  2.8119E-002  
  523.00  2.8256E-002  
  523.50  2.8434E-002  
  524.00  2.8585E-002  
  524.50  2.8709E-002  
  525.00  2.8847E-002  
  525.50  2.8951E-002  
  526.00  2.9045E-002  
  526.50  2.9156E-002  
  527.00  2.9270E-002  
  527.50  2.9459E-002  
  528.00  2.9640E-002  
  528.50  2.9806E-002  
  529.00  2.9916E-002  
  529.50  2.9981E-002  
  530.00  3.0094E-002  
  530.50  3.0307E-002  
  531.00  3.0517E-002  
  531.50  3.0623E-002  
  532.00  3.0655E-002  
  532.50  3.0717E-002  
  533.00  3.0858E-002  
  533.50  3.0969E-002  
  534.00  3.1098E-002  
  534.50  3.1258E-002  
  535.00  3.1513E-002  
  535.50  3.1722E-002  
  536.00  3.1855E-002  
  536.50  3.1940E-002  
  537.00  3.2012E-002  
  537.50  3.2056E-002  
  538.00  3.2092E-002  
  538.50  3.2215E-002  
  539.00  3.2450E-002  
  539.50  3.2707E-002  
  540.00  3.2901E-002  
  540.50  3.3022E-002  
  541.00  3.3136E-002  
  541.50  3.3278E-002  
  542.00  3.3486E-002  
  542.50  3.3724E-002  
  543.00  3.4002E-002  
  543.50  3.4184E-002  
  544.00  3.4325E-002  
  544.50  3.4432E-002  
  545.00  3.4533E-002  
  545.50  3.4712E-002  
  546.00  3.4900E-002  
  546.50  3.5110E-002  
  547.00  3.5287E-002  
  547.50  3.5466E-002  
  548.00  3.5596E-002  
  548.50  3.5803E-002  
  549.00  3.6032E-002  
  549.50  3.6307E-002  
  550.00  3.6627E-002  
  550.50  3.6930E-002  
  551.00  3.7221E-002  
  551.50  3.7507E-002  
  552.00  3.7781E-002  
  552.50  3.8005E-002  
  553.00  3.8209E-002  
  553.50  3.8329E-002  
  554.00  3.8548E-002  
  554.50  3.8865E-002  
  555.00  3.9245E-002  
  555.50  3.9549E-002  
  556.00  3.9894E-002  
  556.50  4.0166E-002  
  557.00  4.0448E-002  
  557.50  4.0716E-002  
  558.00  4.1062E-002  
  558.50  4.1464E-002  
  559.00  4.1812E-002  
  559.50  4.2119E-002  
  560.00  4.2407E-002  
  560.50  4.2668E-002  
  561.00  4.2953E-002  
  561.50  4.3315E-002  
  562.00  4.3710E-002  
  562.50  4.4166E-002  
  563.00  4.4500E-002  
  563.50  4.4889E-002  
  564.00  4.5168E-002  
  564.50  4.5445E-002  
  565.00  4.5748E-002  
  565.50  4.6076E-002  
  566.00  4.6476E-002  
  566.50  4.6850E-002  
  567.00  4.7183E-002  
  567.50  4.7583E-002  
  568.00  4.7987E-002  
  568.50  4.8499E-002  
  569.00  4.8993E-002  
  569.50  4.9379E-002  
  570.00  4.9705E-002  
  570.50  5.0096E-002  
  571.00  5.0529E-002  
  571.50  5.0960E-002  
  572.00  5.1283E-002  
  572.50  5.1657E-002  
  573.00  5.2036E-002  
  573.50  5.2455E-002  
  574.00  5.2853E-002  
  574.50  5.3251E-002  
  575.00  5.3645E-002  
  575.50  5.4067E-002  
  576.00  5.4441E-002  
  576.50  5.4866E-002  
  577.00  5.5231E-002  
  577.50  5.5672E-002  
  578.00  5.6089E-002  
  578.50  5.6515E-002  
  579.00  5.6955E-002  
  579.50  5.7370E-002  
  580.00  5.7777E-002  
  580.50  5.8029E-002  
  581.00  5.8348E-002  
  581.50  5.8712E-002  
  582.00  5.9264E-002  
  582.50  5.9760E-002  
  583.00  6.0152E-002  
  583.50  6.0498E-002  
  584.00  6.0830E-002  
  584.50  6.1254E-002  
  585.00  6.1650E-002  
  585.50  6.2043E-002  
  586.00  6.2360E-002  
  586.50  6.2761E-002  
  587.00  6.3186E-002  
  587.50  6.3675E-002  
  588.00  6.4027E-002  
  588.50  6.4296E-002  
  589.00  6.4562E-002  
  589.50  6.4932E-002  
  590.00  6.5216E-002  
  590.50  6.5508E-002  
  591.00  6.5784E-002  
  591.50  6.6221E-002  
  592.00  6.6638E-002  
  592.50  6.7042E-002  
  593.00  6.7317E-002  
  593.50  6.7517E-002  
  594.00  6.7746E-002  
  594.50  6.8094E-002  
  595.00  6.8411E-002  
  595.50  6.8683E-002  
  596.00  6.8816E-002  
  596.50  6.8950E-002  
  597.00  6.9069E-002  
  597.50  6.9310E-002  
  598.00  6.9611E-002  
  598.50  6.9963E-002  
  599.00  7.0182E-002  
  599.50  7.0291E-002  
  600.00  7.0360E-002  
  600.50  7.0335E-002  
  601.00  7.0371E-002  
  601.50  7.0519E-002  
  602.00  7.0797E-002  
  602.50  7.1151E-002  
  603.00  7.1379E-002  
  603.50  7.1521E-002  
  604.00  7.1620E-002  
  604.50  7.1690E-002  
  605.00  7.1656E-002  
  605.50  7.1664E-002  
  606.00  7.1768E-002  
  606.50  7.1931E-002  
  607.00  7.2069E-002  
  607.50  7.2043E-002  
  608.00  7.2081E-002  
  608.50  7.2128E-002  
  609.00  7.2194E-002  
  609.50  7.2265E-002  
  610.00  7.2372E-002  
  610.50  7.2481E-002  
  611.00  7.2613E-002  
  611.50  7.2509E-002  
  612.00  7.2392E-002  
  612.50  7.2288E-002  
  613.00  7.2298E-002  
  613.50  7.2280E-002  
  614.00  7.2092E-002  
  614.50  7.1973E-002  
  615.00  7.1874E-002  
  615.50  7.1833E-002  
  616.00  7.1764E-002  
  616.50  7.1513E-002  
  617.00  7.1315E-002  
  617.50  7.1112E-002  
  618.00  7.1050E-002  
  618.50  7.0970E-002  
  619.00  7.0863E-002  
  619.50  7.0639E-002  
  620.00  7.0328E-002  
  620.50  6.9885E-002  
  621.00  6.9606E-002  
  621.50  6.9535E-002  
  622.00  6.9546E-002  
  622.50  6.9432E-002  
  623.00  6.9186E-002  
  623.50  6.8893E-002  
  624.00  6.8637E-002  
  624.50  6.8309E-002  
  625.00  6.8068E-002  
  625.50  6.7835E-002  
  626.00  6.7656E-002  
  626.50  6.7369E-002  
  627.00  6.7171E-002  
  627.50  6.6943E-002  
  628.00  6.6712E-002  
  628.50  6.6286E-002  
  629.00  6.5901E-002  
  629.50  6.5539E-002  
  630.00  6.5158E-002  
  630.50  6.4803E-002  
  631.00  6.4509E-002  
  631.50  6.4270E-002  
  632.00  6.3937E-002  
  632.50  6.3655E-002  
  633.00  6.3487E-002  
  633.50  6.3320E-002  
  634.00  6.3005E-002  
  634.50  6.2566E-002  
  635.00  6.2165E-002  
  635.50  6.1634E-002  
  636.00  6.1197E-002  
  636.50  6.0727E-002  
  637.00  6.0483E-002  
  637.50  6.0147E-002  
  638.00  5.9716E-002  
  638.50  5.9221E-002  
  639.00  5.8814E-002  
  639.50  5.8508E-002  
  640.00  5.8108E-002  
  640.50  5.7677E-002  
  641.00  5.7332E-002  
  641.50  5.6999E-002  
  642.00  5.6478E-002  
  642.50  5.6017E-002  
  643.00  5.5645E-002  
  643.50  5.5344E-002  
  644.00  5.4834E-002  
  644.50  5.4308E-002  
  645.00  5.3918E-002  
  645.50  5.3566E-002  
  646.00  5.3111E-002  
  646.50  5.2691E-002  
  647.00  5.2250E-002  
  647.50  5.1838E-002  
  648.00  5.1294E-002  
  648.50  5.0828E-002  
  649.00  5.0424E-002  
  649.50  5.0123E-002  
  650.00  4.9747E-002  
  650.50  4.9184E-002  
  651.00  4.8529E-002  
  651.50  4.7956E-002  
  652.00  4.7635E-002  
  652.50  4.7396E-002  
  653.00  4.7128E-002  
  653.50  4.6648E-002  
  654.00  4.6017E-002  
  654.50  4.5430E-002  
  655.00  4.4997E-002  
  655.50  4.4652E-002  
  656.00  4.4144E-002  
  656.50  4.3729E-002  
  657.00  4.3320E-002  
  657.50  4.2893E-002  
  658.00  4.2315E-002  
  658.50  4.1954E-002  
  659.00  4.1616E-002  
  659.50  4.1256E-002  
  660.00  4.0659E-002  
  660.50  4.0153E-002  
  661.00  3.9639E-002  
  661.50  3.9143E-002  
  662.00  3.8703E-002  
  662.50  3.8392E-002  
  663.00  3.8011E-002  
  663.50  3.7530E-002  
  664.00  3.7021E-002  
  664.50  3.6630E-002  
  665.00  3.6255E-002  
  665.50  3.5864E-002  
  666.00  3.5441E-002  
  666.50  3.5030E-002  
  667.00  3.4659E-002  
  667.50  3.4286E-002  
  668.00  3.3957E-002  
  668.50  3.3576E-002  
  669.00  3.3181E-002  
  669.50  3.2724E-002  
  670.00  3.2242E-002  
  670.50  3.1806E-002  
  671.00  3.1478E-002  
  671.50  3.1164E-002  
  672.00  3.0845E-002  
  672.50  3.0408E-002  
  673.00  3.0017E-002  
  673.50  2.9690E-002  
  674.00  2.9303E-002  
  674.50  2.8808E-002  
  675.00  2.8271E-002  
  675.50  2.7945E-002  
  676.00  2.7643E-002  
  676.50  2.7325E-002  
  677.00  2.6929E-002  
  677.50  2.6647E-002  
  678.00  2.6319E-002  
  678.50  2.5996E-002  
  679.00  2.5631E-002  
  679.50  2.5364E-002  
  680.00  2.4974E-002  
