
# From lspdd.org
# 
# Name: DEL TCP PAR20 Domestique
# Indice spectral Valeur 
# MSI 0.29 
# SLI 0.49 
# IPI 0.67 
# Pourcentage de bleu 19.0 
# Caractéristique Valeur 
# CCT calculée (K) 2664 
# CCT du fabricant (K) 2700 
# Tension (V) 120 
# Puissance (W) 10.0 
# Efficacité lumineuse (Lum/W) 60.0 
#
# Image: '/app/system/img_2s/2636/medium_image2.JPG?1423776248'
# Image: '/app/system/img_1s/2636/medium_image1.JPG?1423776244'
# 

  273.00  0.0000E+000  
  273.50  0.0000E+000  
  274.00  0.0000E+000  
  274.50  0.0000E+000  
  275.00  0.0000E+000  
  275.50  0.0000E+000  
  276.00  0.0000E+000  
  276.50  0.0000E+000  
  277.00  0.0000E+000  
  277.50  0.0000E+000  
  278.00  0.0000E+000  
  278.50  0.0000E+000  
  279.00  0.0000E+000  
  279.50  0.0000E+000  
  280.00  0.0000E+000  
  280.50  0.0000E+000  
  281.00  0.0000E+000  
  281.50  0.0000E+000  
  282.00  0.0000E+000  
  282.50  0.0000E+000  
  283.00  0.0000E+000  
  283.50  0.0000E+000  
  284.00  0.0000E+000  
  284.50  0.0000E+000  
  285.00  0.0000E+000  
  285.50  0.0000E+000  
  286.00  0.0000E+000  
  286.50  0.0000E+000  
  287.00  0.0000E+000  
  287.50  0.0000E+000  
  288.00  0.0000E+000  
  288.50  0.0000E+000  
  289.00  0.0000E+000  
  289.50  0.0000E+000  
  290.00  0.0000E+000  
  290.50  0.0000E+000  
  291.00  0.0000E+000  
  291.50  0.0000E+000  
  292.00  0.0000E+000  
  292.50  0.0000E+000  
  293.00  0.0000E+000  
  293.50  0.0000E+000  
  294.00  0.0000E+000  
  294.50  0.0000E+000  
  295.00  0.0000E+000  
  295.50  0.0000E+000  
  296.00  0.0000E+000  
  296.50  0.0000E+000  
  297.00  0.0000E+000  
  297.50  0.0000E+000  
  298.00  0.0000E+000  
  298.50  0.0000E+000  
  299.00  0.0000E+000  
  299.50  0.0000E+000  
  300.00  3.5131E-005  
  300.50  6.8375E-005  
  301.00  1.2652E-005  
  301.50  0.0000E+000  
  302.00  2.3805E-005  
  302.50  3.9968E-005  
  303.00  8.6446E-005  
  303.50  1.2809E-004  
  304.00  1.4334E-004  
  304.50  1.9163E-004  
  305.00  1.4810E-004  
  305.50  1.2977E-004  
  306.00  1.3185E-004  
  306.50  1.6628E-004  
  307.00  2.4304E-004  
  307.50  2.1292E-004  
  308.00  1.4024E-004  
  308.50  1.2340E-004  
  309.00  1.1854E-004  
  309.50  1.0226E-004  
  310.00  1.4843E-004  
  310.50  1.1925E-004  
  311.00  1.0229E-004  
  311.50  1.5523E-004  
  312.00  2.3511E-004  
  312.50  2.5583E-004  
  313.00  2.9422E-004  
  313.50  2.5029E-004  
  314.00  1.6655E-004  
  314.50  1.9595E-004  
  315.00  2.1366E-004  
  315.50  2.6677E-004  
  316.00  2.8401E-004  
  316.50  2.1072E-004  
  317.00  1.8683E-004  
  317.50  2.0123E-004  
  318.00  1.9357E-004  
  318.50  2.1767E-004  
  319.00  2.0692E-004  
  319.50  8.7410E-005  
  320.00  7.4174E-005  
  320.50  4.5268E-005  
  321.00  0.0000E+000  
  321.50  0.0000E+000  
  322.00  0.0000E+000  
  322.50  0.0000E+000  
  323.00  0.0000E+000  
  323.50  0.0000E+000  
  324.00  0.0000E+000  
  324.50  0.0000E+000  
  325.00  8.2664E-006  
  325.50  6.6503E-005  
  326.00  1.2934E-004  
  326.50  1.3308E-004  
  327.00  1.1653E-004  
  327.50  1.1319E-004  
  328.00  1.1290E-004  
  328.50  7.6522E-005  
  329.00  7.4698E-005  
  329.50  1.3411E-004  
  330.00  2.0837E-004  
  330.50  2.2557E-004  
  331.00  1.5190E-004  
  331.50  7.2853E-005  
  332.00  3.2910E-005  
  332.50  8.2364E-005  
  333.00  1.0437E-004  
  333.50  7.5490E-005  
  334.00  6.4768E-005  
  334.50  7.1820E-005  
  335.00  1.0788E-004  
  335.50  1.0260E-004  
  336.00  9.2064E-005  
  336.50  7.4925E-005  
  337.00  1.1064E-004  
  337.50  1.9221E-004  
  338.00  2.4186E-004  
  338.50  2.1650E-004  
  339.00  2.4508E-004  
  339.50  2.3988E-004  
  340.00  2.7198E-004  
  340.50  3.1770E-004  
  341.00  2.5862E-004  
  341.50  2.2471E-004  
  342.00  1.7209E-004  
  342.50  9.5946E-005  
  343.00  5.1249E-005  
  343.50  8.0429E-005  
  344.00  1.3843E-004  
  344.50  1.8155E-004  
  345.00  1.4809E-004  
  345.50  5.3306E-005  
  346.00  5.8335E-005  
  346.50  1.0300E-004  
  347.00  1.4744E-004  
  347.50  1.5544E-004  
  348.00  1.0665E-004  
  348.50  2.1094E-004  
  349.00  2.9659E-004  
  349.50  3.3230E-004  
  350.00  3.2721E-004  
  350.50  2.4937E-004  
  351.00  2.1288E-004  
  351.50  2.2981E-004  
  352.00  1.7804E-004  
  352.50  1.1738E-004  
  353.00  1.0175E-004  
  353.50  8.8733E-005  
  354.00  2.0007E-004  
  354.50  2.3760E-004  
  355.00  2.4286E-004  
  355.50  2.1371E-004  
  356.00  1.9513E-004  
  356.50  1.8800E-004  
  357.00  1.7339E-004  
  357.50  1.5872E-004  
  358.00  9.3869E-005  
  358.50  8.9861E-005  
  359.00  1.1870E-004  
  359.50  1.3297E-004  
  360.00  1.8055E-004  
  360.50  2.1926E-004  
  361.00  2.3994E-004  
  361.50  2.8248E-004  
  362.00  2.9253E-004  
  362.50  2.4397E-004  
  363.00  1.7750E-004  
  363.50  1.3001E-004  
  364.00  1.1284E-004  
  364.50  1.5413E-004  
  365.00  2.1690E-004  
  365.50  2.4146E-004  
  366.00  2.2661E-004  
  366.50  2.1330E-004  
  367.00  1.9692E-004  
  367.50  2.0253E-004  
  368.00  1.9328E-004  
  368.50  1.7257E-004  
  369.00  1.1702E-004  
  369.50  8.6797E-005  
  370.00  1.1112E-004  
  370.50  1.3959E-004  
  371.00  1.7034E-004  
  371.50  1.4267E-004  
  372.00  3.2917E-005  
  372.50  0.0000E+000  
  373.00  0.0000E+000  
  373.50  2.2979E-005  
  374.00  8.7777E-005  
  374.50  1.0590E-004  
  375.00  1.0223E-004  
  375.50  9.0419E-005  
  376.00  8.3202E-005  
  376.50  7.4535E-005  
  377.00  6.1595E-005  
  377.50  5.5700E-005  
  378.00  1.2899E-005  
  378.50  5.0594E-007  
  379.00  8.0971E-007  
  379.50  0.0000E+000  
  380.00  1.8200E-005  
  380.50  2.9081E-005  
  381.00  9.0466E-005  
  381.50  1.4833E-004  
  382.00  2.2463E-004  
  382.50  2.7054E-004  
  383.00  2.3827E-004  
  383.50  2.2628E-004  
  384.00  2.2490E-004  
  384.50  2.2080E-004  
  385.00  2.2711E-004  
  385.50  1.9995E-004  
  386.00  1.6747E-004  
  386.50  1.4405E-004  
  387.00  1.7852E-004  
  387.50  2.4036E-004  
  388.00  3.0899E-004  
  388.50  3.5346E-004  
  389.00  3.2649E-004  
  389.50  2.3695E-004  
  390.00  1.1516E-004  
  390.50  1.4637E-005  
  391.00  4.4317E-005  
  391.50  1.0306E-004  
  392.00  2.1549E-004  
  392.50  2.5383E-004  
  393.00  2.7095E-004  
  393.50  3.0831E-004  
  394.00  2.7706E-004  
  394.50  2.4098E-004  
  395.00  2.0887E-004  
  395.50  2.0672E-004  
  396.00  1.5700E-004  
  396.50  1.3458E-004  
  397.00  1.0383E-004  
  397.50  9.9241E-005  
  398.00  1.5341E-004  
  398.50  1.2524E-004  
  399.00  1.2677E-004  
  399.50  1.3399E-004  
  400.00  1.7875E-004  
  400.50  1.9118E-004  
  401.00  1.7564E-004  
  401.50  1.3882E-004  
  402.00  1.1474E-004  
  402.50  1.5725E-004  
  403.00  1.8391E-004  
  403.50  2.2424E-004  
  404.00  2.4950E-004  
  404.50  2.4555E-004  
  405.00  3.1926E-004  
  405.50  3.4125E-004  
  406.00  3.3528E-004  
  406.50  3.4530E-004  
  407.00  2.9942E-004  
  407.50  3.3974E-004  
  408.00  3.3552E-004  
  408.50  3.4627E-004  
  409.00  3.6475E-004  
  409.50  3.7963E-004  
  410.00  3.9760E-004  
  410.50  3.5611E-004  
  411.00  3.4940E-004  
  411.50  3.5954E-004  
  412.00  3.8362E-004  
  412.50  4.4769E-004  
  413.00  4.7531E-004  
  413.50  4.9442E-004  
  414.00  5.5099E-004  
  414.50  6.0485E-004  
  415.00  6.4745E-004  
  415.50  6.9857E-004  
  416.00  7.3996E-004  
  416.50  8.0340E-004  
  417.00  8.4325E-004  
  417.50  8.4366E-004  
  418.00  8.6835E-004  
  418.50  9.7013E-004  
  419.00  1.0897E-003  
  419.50  1.1835E-003  
  420.00  1.2446E-003  
  420.50  1.3242E-003  
  421.00  1.4716E-003  
  421.50  1.6199E-003  
  422.00  1.7219E-003  
  422.50  1.7641E-003  
  423.00  1.8167E-003  
  423.50  1.9281E-003  
  424.00  2.0816E-003  
  424.50  2.2769E-003  
  425.00  2.4903E-003  
  425.50  2.6811E-003  
  426.00  2.9001E-003  
  426.50  3.1318E-003  
  427.00  3.3604E-003  
  427.50  3.6358E-003  
  428.00  3.9142E-003  
  428.50  4.2008E-003  
  429.00  4.4606E-003  
  429.50  4.7717E-003  
  430.00  5.1022E-003  
  430.50  5.4560E-003  
  431.00  5.8127E-003  
  431.50  6.1193E-003  
  432.00  6.4123E-003  
  432.50  6.7476E-003  
  433.00  7.1670E-003  
  433.50  7.7524E-003  
  434.00  8.3477E-003  
  434.50  8.8858E-003  
  435.00  9.3966E-003  
  435.50  9.8791E-003  
  436.00  1.0468E-002  
  436.50  1.1124E-002  
  437.00  1.1807E-002  
  437.50  1.2533E-002  
  438.00  1.3329E-002  
  438.50  1.4144E-002  
  439.00  1.4934E-002  
  439.50  1.5839E-002  
  440.00  1.6829E-002  
  440.50  1.7932E-002  
  441.00  1.8919E-002  
  441.50  1.9763E-002  
  442.00  2.0689E-002  
  442.50  2.1720E-002  
  443.00  2.2875E-002  
  443.50  2.4087E-002  
  444.00  2.5290E-002  
  444.50  2.6522E-002  
  445.00  2.7625E-002  
  445.50  2.8559E-002  
  446.00  2.9348E-002  
  446.50  3.0182E-002  
  447.00  3.0976E-002  
  447.50  3.1726E-002  
  448.00  3.2430E-002  
  448.50  3.2911E-002  
  449.00  3.3153E-002  
  449.50  3.3152E-002  
  450.00  3.3094E-002  
  450.50  3.2990E-002  
  451.00  3.2828E-002  
  451.50  3.2284E-002  
  452.00  3.1577E-002  
  452.50  3.0678E-002  
  453.00  2.9808E-002  
  453.50  2.8971E-002  
  454.00  2.8080E-002  
  454.50  2.7146E-002  
  455.00  2.6177E-002  
  455.50  2.5170E-002  
  456.00  2.4208E-002  
  456.50  2.3214E-002  
  457.00  2.2304E-002  
  457.50  2.1454E-002  
  458.00  2.0607E-002  
  458.50  1.9913E-002  
  459.00  1.9186E-002  
  459.50  1.8389E-002  
  460.00  1.7691E-002  
  460.50  1.7035E-002  
  461.00  1.6599E-002  
  461.50  1.6240E-002  
  462.00  1.5796E-002  
  462.50  1.5381E-002  
  463.00  1.5058E-002  
  463.50  1.4798E-002  
  464.00  1.4567E-002  
  464.50  1.4243E-002  
  465.00  1.3938E-002  
  465.50  1.3613E-002  
  466.00  1.3326E-002  
  466.50  1.2992E-002  
  467.00  1.2639E-002  
  467.50  1.2279E-002  
  468.00  1.1941E-002  
  468.50  1.1667E-002  
  469.00  1.1420E-002  
  469.50  1.1216E-002  
  470.00  1.0945E-002  
  470.50  1.0701E-002  
  471.00  1.0418E-002  
  471.50  1.0185E-002  
  472.00  9.9948E-003  
  472.50  9.7910E-003  
  473.00  9.5990E-003  
  473.50  9.4165E-003  
  474.00  9.3115E-003  
  474.50  9.2443E-003  
  475.00  9.1857E-003  
  475.50  9.0967E-003  
  476.00  8.9879E-003  
  476.50  8.9210E-003  
  477.00  8.9496E-003  
  477.50  9.0395E-003  
  478.00  9.0977E-003  
  478.50  9.1424E-003  
  479.00  9.0993E-003  
  479.50  9.0806E-003  
  480.00  9.1317E-003  
  480.50  9.2144E-003  
  481.00  9.3957E-003  
  481.50  9.5430E-003  
  482.00  9.7162E-003  
  482.50  9.8927E-003  
  483.00  1.0007E-002  
  483.50  1.0164E-002  
  484.00  1.0304E-002  
  484.50  1.0420E-002  
  485.00  1.0543E-002  
  485.50  1.0674E-002  
  486.00  1.0918E-002  
  486.50  1.1202E-002  
  487.00  1.1501E-002  
  487.50  1.1748E-002  
  488.00  1.1994E-002  
  488.50  1.2228E-002  
  489.00  1.2523E-002  
  489.50  1.2807E-002  
  490.00  1.3141E-002  
  490.50  1.3477E-002  
  491.00  1.3766E-002  
  491.50  1.4095E-002  
  492.00  1.4459E-002  
  492.50  1.4861E-002  
  493.00  1.5217E-002  
  493.50  1.5525E-002  
  494.00  1.5853E-002  
  494.50  1.6255E-002  
  495.00  1.6682E-002  
  495.50  1.7126E-002  
  496.00  1.7534E-002  
  496.50  1.7953E-002  
  497.00  1.8407E-002  
  497.50  1.8844E-002  
  498.00  1.9305E-002  
  498.50  1.9731E-002  
  499.00  2.0124E-002  
  499.50  2.0476E-002  
  500.00  2.0851E-002  
  500.50  2.1264E-002  
  501.00  2.1713E-002  
  501.50  2.2205E-002  
  502.00  2.2694E-002  
  502.50  2.3146E-002  
  503.00  2.3541E-002  
  503.50  2.3933E-002  
  504.00  2.4323E-002  
  504.50  2.4742E-002  
  505.00  2.5120E-002  
  505.50  2.5521E-002  
  506.00  2.5920E-002  
  506.50  2.6331E-002  
  507.00  2.6768E-002  
  507.50  2.7192E-002  
  508.00  2.7602E-002  
  508.50  2.7953E-002  
  509.00  2.8232E-002  
  509.50  2.8469E-002  
  510.00  2.8869E-002  
  510.50  2.9341E-002  
  511.00  2.9809E-002  
  511.50  3.0133E-002  
  512.00  3.0386E-002  
  512.50  3.0625E-002  
  513.00  3.0920E-002  
  513.50  3.1219E-002  
  514.00  3.1535E-002  
  514.50  3.1955E-002  
  515.00  3.2390E-002  
  515.50  3.2710E-002  
  516.00  3.2937E-002  
  516.50  3.3142E-002  
  517.00  3.3337E-002  
  517.50  3.3586E-002  
  518.00  3.3756E-002  
  518.50  3.3958E-002  
  519.00  3.4160E-002  
  519.50  3.4441E-002  
  520.00  3.4698E-002  
  520.50  3.4924E-002  
  521.00  3.5159E-002  
  521.50  3.5370E-002  
  522.00  3.5591E-002  
  522.50  3.5751E-002  
  523.00  3.5872E-002  
  523.50  3.6066E-002  
  524.00  3.6272E-002  
  524.50  3.6442E-002  
  525.00  3.6565E-002  
  525.50  3.6663E-002  
  526.00  3.6775E-002  
  526.50  3.6920E-002  
  527.00  3.7026E-002  
  527.50  3.7181E-002  
  528.00  3.7345E-002  
  528.50  3.7495E-002  
  529.00  3.7650E-002  
  529.50  3.7680E-002  
  530.00  3.7766E-002  
  530.50  3.7901E-002  
  531.00  3.8051E-002  
  531.50  3.8090E-002  
  532.00  3.8099E-002  
  532.50  3.8133E-002  
  533.00  3.8247E-002  
  533.50  3.8436E-002  
  534.00  3.8544E-002  
  534.50  3.8638E-002  
  535.00  3.8773E-002  
  535.50  3.8852E-002  
  536.00  3.8954E-002  
  536.50  3.8986E-002  
  537.00  3.9014E-002  
  537.50  3.9051E-002  
  538.00  3.9077E-002  
  538.50  3.9187E-002  
  539.00  3.9309E-002  
  539.50  3.9446E-002  
  540.00  3.9538E-002  
  540.50  3.9583E-002  
  541.00  3.9629E-002  
  541.50  3.9698E-002  
  542.00  3.9757E-002  
  542.50  3.9864E-002  
  543.00  3.9994E-002  
  543.50  4.0098E-002  
  544.00  4.0195E-002  
  544.50  4.0228E-002  
  545.00  4.0312E-002  
  545.50  4.0470E-002  
  546.00  4.0613E-002  
  546.50  4.0785E-002  
  547.00  4.0913E-002  
  547.50  4.0985E-002  
  548.00  4.0996E-002  
  548.50  4.1016E-002  
  549.00  4.1121E-002  
  549.50  4.1316E-002  
  550.00  4.1509E-002  
  550.50  4.1726E-002  
  551.00  4.1869E-002  
  551.50  4.2032E-002  
  552.00  4.2180E-002  
  552.50  4.2370E-002  
  553.00  4.2530E-002  
  553.50  4.2609E-002  
  554.00  4.2786E-002  
  554.50  4.3073E-002  
  555.00  4.3326E-002  
  555.50  4.3506E-002  
  556.00  4.3673E-002  
  556.50  4.3935E-002  
  557.00  4.4235E-002  
  557.50  4.4477E-002  
  558.00  4.4708E-002  
  558.50  4.4962E-002  
  559.00  4.5233E-002  
  559.50  4.5492E-002  
  560.00  4.5834E-002  
  560.50  4.6137E-002  
  561.00  4.6435E-002  
  561.50  4.6649E-002  
  562.00  4.6906E-002  
  562.50  4.7275E-002  
  563.00  4.7678E-002  
  563.50  4.8119E-002  
  564.00  4.8426E-002  
  564.50  4.8779E-002  
  565.00  4.9060E-002  
  565.50  4.9410E-002  
  566.00  4.9772E-002  
  566.50  5.0164E-002  
  567.00  5.0505E-002  
  567.50  5.0875E-002  
  568.00  5.1253E-002  
  568.50  5.1728E-002  
  569.00  5.2242E-002  
  569.50  5.2844E-002  
  570.00  5.3351E-002  
  570.50  5.3828E-002  
  571.00  5.4279E-002  
  571.50  5.4719E-002  
  572.00  5.5244E-002  
  572.50  5.5719E-002  
  573.00  5.6202E-002  
  573.50  5.6656E-002  
  574.00  5.7132E-002  
  574.50  5.7664E-002  
  575.00  5.8335E-002  
  575.50  5.8951E-002  
  576.00  5.9521E-002  
  576.50  6.0056E-002  
  577.00  6.0550E-002  
  577.50  6.1126E-002  
  578.00  6.1713E-002  
  578.50  6.2261E-002  
  579.00  6.2805E-002  
  579.50  6.3345E-002  
  580.00  6.3981E-002  
  580.50  6.4646E-002  
  581.00  6.5214E-002  
  581.50  6.5655E-002  
  582.00  6.6038E-002  
  582.50  6.6547E-002  
  583.00  6.7192E-002  
  583.50  6.7859E-002  
  584.00  6.8492E-002  
  584.50  6.9152E-002  
  585.00  6.9783E-002  
  585.50  7.0342E-002  
  586.00  7.0767E-002  
  586.50  7.1140E-002  
  587.00  7.1539E-002  
  587.50  7.2109E-002  
  588.00  7.2731E-002  
  588.50  7.3326E-002  
  589.00  7.3804E-002  
  589.50  7.4346E-002  
  590.00  7.4856E-002  
  590.50  7.5310E-002  
  591.00  7.5649E-002  
  591.50  7.6142E-002  
  592.00  7.6719E-002  
  592.50  7.7156E-002  
  593.00  7.7598E-002  
  593.50  7.7945E-002  
  594.00  7.8398E-002  
  594.50  7.8823E-002  
  595.00  7.9197E-002  
  595.50  7.9595E-002  
  596.00  7.9924E-002  
  596.50  8.0341E-002  
  597.00  8.0662E-002  
  597.50  8.0924E-002  
  598.00  8.1195E-002  
  598.50  8.1558E-002  
  599.00  8.1901E-002  
  599.50  8.2162E-002  
  600.00  8.2324E-002  
  600.50  8.2418E-002  
  601.00  8.2545E-002  
  601.50  8.2635E-002  
  602.00  8.2843E-002  
  602.50  8.3073E-002  
  603.00  8.3287E-002  
  603.50  8.3458E-002  
  604.00  8.3483E-002  
  604.50  8.3505E-002  
  605.00  8.3554E-002  
  605.50  8.3673E-002  
  606.00  8.3815E-002  
  606.50  8.3919E-002  
  607.00  8.3985E-002  
  607.50  8.3984E-002  
  608.00  8.3943E-002  
  608.50  8.3952E-002  
  609.00  8.4010E-002  
  609.50  8.4019E-002  
  610.00  8.4000E-002  
  610.50  8.3888E-002  
  611.00  8.3728E-002  
  611.50  8.3532E-002  
  612.00  8.3423E-002  
  612.50  8.3334E-002  
  613.00  8.3294E-002  
  613.50  8.3174E-002  
  614.00  8.3081E-002  
  614.50  8.3110E-002  
  615.00  8.2918E-002  
  615.50  8.2579E-002  
  616.00  8.2087E-002  
  616.50  8.1684E-002  
  617.00  8.1388E-002  
  617.50  8.1164E-002  
  618.00  8.0929E-002  
  618.50  8.0684E-002  
  619.00  8.0392E-002  
  619.50  8.0173E-002  
  620.00  7.9872E-002  
  620.50  7.9440E-002  
  621.00  7.8958E-002  
  621.50  7.8533E-002  
  622.00  7.8026E-002  
  622.50  7.7563E-002  
  623.00  7.7172E-002  
  623.50  7.6952E-002  
  624.00  7.6679E-002  
  624.50  7.6236E-002  
  625.00  7.5758E-002  
  625.50  7.5272E-002  
  626.00  7.4782E-002  
  626.50  7.4394E-002  
  627.00  7.4034E-002  
  627.50  7.3603E-002  
  628.00  7.3128E-002  
  628.50  7.2563E-002  
  629.00  7.2126E-002  
  629.50  7.1695E-002  
  630.00  7.1356E-002  
  630.50  7.0888E-002  
  631.00  7.0301E-002  
  631.50  6.9739E-002  
  632.00  6.9267E-002  
  632.50  6.8767E-002  
  633.00  6.8377E-002  
  633.50  6.8000E-002  
  634.00  6.7581E-002  
  634.50  6.6925E-002  
  635.00  6.6207E-002  
  635.50  6.5565E-002  
  636.00  6.5032E-002  
  636.50  6.4449E-002  
  637.00  6.3924E-002  
  637.50  6.3433E-002  
  638.00  6.2935E-002  
  638.50  6.2410E-002  
  639.00  6.1795E-002  
  639.50  6.1167E-002  
  640.00  6.0588E-002  
  640.50  6.0068E-002  
  641.00  5.9527E-002  
  641.50  5.9014E-002  
  642.00  5.8370E-002  
  642.50  5.7811E-002  
  643.00  5.7249E-002  
  643.50  5.6714E-002  
  644.00  5.6138E-002  
  644.50  5.5462E-002  
  645.00  5.4803E-002  
  645.50  5.4217E-002  
  646.00  5.3724E-002  
  646.50  5.3222E-002  
  647.00  5.2644E-002  
  647.50  5.2086E-002  
  648.00  5.1511E-002  
  648.50  5.0969E-002  
  649.00  5.0444E-002  
  649.50  4.9986E-002  
  650.00  4.9482E-002  
  650.50  4.8852E-002  
  651.00  4.8113E-002  
  651.50  4.7464E-002  
  652.00  4.6883E-002  
  652.50  4.6488E-002  
  653.00  4.5941E-002  
  653.50  4.5409E-002  
  654.00  4.4777E-002  
  654.50  4.4237E-002  
  655.00  4.3641E-002  
  655.50  4.3164E-002  
  656.00  4.2560E-002  
  656.50  4.2028E-002  
  657.00  4.1611E-002  
  657.50  4.1318E-002  
  658.00  4.0829E-002  
  658.50  4.0176E-002  
  659.00  3.9492E-002  
  659.50  3.9004E-002  
  660.00  3.8520E-002  
  660.50  3.8101E-002  
  661.00  3.7625E-002  
  661.50  3.7101E-002  
  662.00  3.6542E-002  
  662.50  3.6060E-002  
  663.00  3.5548E-002  
  663.50  3.5038E-002  
  664.00  3.4492E-002  
  664.50  3.4065E-002  
  665.00  3.3577E-002  
  665.50  3.3089E-002  
  666.00  3.2568E-002  
  666.50  3.2162E-002  
  667.00  3.1796E-002  
  667.50  3.1500E-002  
  668.00  3.1188E-002  
  668.50  3.0784E-002  
  669.00  3.0247E-002  
  669.50  2.9692E-002  
  670.00  2.9293E-002  
  670.50  2.8925E-002  
  671.00  2.8531E-002  
  671.50  2.8074E-002  
  672.00  2.7641E-002  
  672.50  2.7231E-002  
  673.00  2.6767E-002  
  673.50  2.6325E-002  
  674.00  2.5894E-002  
  674.50  2.5556E-002  
  675.00  2.5225E-002  
  675.50  2.4915E-002  
  676.00  2.4444E-002  
  676.50  2.4012E-002  
  677.00  2.3693E-002  
  677.50  2.3512E-002  
  678.00  2.3272E-002  
  678.50  2.2938E-002  
  679.00  2.2578E-002  
  679.50  2.2173E-002  
  680.00  2.1799E-002  
