
# From lspdd.org
# 
# Name: HM Philips - Industriel
# Indice spectral Valeur 
# MSI 0.56 
# SLI 0.70 
# IPI 0.66 
# Pourcentage de bleu 36.2 
# Caractéristique Valeur 
# CCT calculée (K) 4259 
# CCT du fabricant (K) 4000 
# Tension (V) 120 
# Puissance (W) 400.0 
# Efficacité lumineuse (Lum/W) 100.0 
#
# Image: '/app/system/img_2s/2641/medium_image2.JPG?1432222875'
# Image: '/app/system/img_1s/2641/medium_image1.JPG?1432222858'
# 

  273.00  0.0000E+000  
  273.50  0.0000E+000  
  274.00  0.0000E+000  
  274.50  0.0000E+000  
  275.00  0.0000E+000  
  275.50  0.0000E+000  
  276.00  0.0000E+000  
  276.50  0.0000E+000  
  277.00  0.0000E+000  
  277.50  0.0000E+000  
  278.00  0.0000E+000  
  278.50  0.0000E+000  
  279.00  0.0000E+000  
  279.50  0.0000E+000  
  280.00  0.0000E+000  
  280.50  0.0000E+000  
  281.00  0.0000E+000  
  281.50  0.0000E+000  
  282.00  0.0000E+000  
  282.50  0.0000E+000  
  283.00  0.0000E+000  
  283.50  0.0000E+000  
  284.00  0.0000E+000  
  284.50  0.0000E+000  
  285.00  0.0000E+000  
  285.50  0.0000E+000  
  286.00  0.0000E+000  
  286.50  0.0000E+000  
  287.00  0.0000E+000  
  287.50  0.0000E+000  
  288.00  0.0000E+000  
  288.50  0.0000E+000  
  289.00  0.0000E+000  
  289.50  0.0000E+000  
  290.00  0.0000E+000  
  290.50  0.0000E+000  
  291.00  0.0000E+000  
  291.50  0.0000E+000  
  292.00  0.0000E+000  
  292.50  0.0000E+000  
  293.00  0.0000E+000  
  293.50  0.0000E+000  
  294.00  0.0000E+000  
  294.50  0.0000E+000  
  295.00  0.0000E+000  
  295.50  0.0000E+000  
  296.00  0.0000E+000  
  296.50  0.0000E+000  
  297.00  0.0000E+000  
  297.50  0.0000E+000  
  298.00  0.0000E+000  
  298.50  0.0000E+000  
  299.00  0.0000E+000  
  299.50  0.0000E+000  
  300.00  0.0000E+000  
  300.50  0.0000E+000  
  301.00  0.0000E+000  
  301.50  0.0000E+000  
  302.00  0.0000E+000  
  302.50  0.0000E+000  
  303.00  0.0000E+000  
  303.50  0.0000E+000  
  304.00  0.0000E+000  
  304.50  0.0000E+000  
  305.00  0.0000E+000  
  305.50  0.0000E+000  
  306.00  0.0000E+000  
  306.50  0.0000E+000  
  307.00  0.0000E+000  
  307.50  0.0000E+000  
  308.00  9.7943E-005  
  308.50  5.5825E-004  
  309.00  8.2496E-004  
  309.50  9.6616E-004  
  310.00  1.0350E-003  
  310.50  9.5196E-004  
  311.00  4.8891E-004  
  311.50  4.8536E-004  
  312.00  3.9074E-004  
  312.50  2.1620E-004  
  313.00  2.0398E-004  
  313.50  2.1597E-005  
  314.00  0.0000E+000  
  314.50  0.0000E+000  
  315.00  0.0000E+000  
  315.50  0.0000E+000  
  316.00  0.0000E+000  
  316.50  0.0000E+000  
  317.00  0.0000E+000  
  317.50  0.0000E+000  
  318.00  0.0000E+000  
  318.50  0.0000E+000  
  319.00  0.0000E+000  
  319.50  0.0000E+000  
  320.00  0.0000E+000  
  320.50  0.0000E+000  
  321.00  0.0000E+000  
  321.50  0.0000E+000  
  322.00  0.0000E+000  
  322.50  0.0000E+000  
  323.00  0.0000E+000  
  323.50  0.0000E+000  
  324.00  0.0000E+000  
  324.50  0.0000E+000  
  325.00  0.0000E+000  
  325.50  0.0000E+000  
  326.00  0.0000E+000  
  326.50  0.0000E+000  
  327.00  0.0000E+000  
  327.50  0.0000E+000  
  328.00  2.3790E-004  
  328.50  4.9341E-004  
  329.00  7.0627E-004  
  329.50  9.2164E-004  
  330.00  9.3785E-004  
  330.50  4.6882E-004  
  331.00  5.2417E-005  
  331.50  0.0000E+000  
  332.00  0.0000E+000  
  332.50  0.0000E+000  
  333.00  0.0000E+000  
  333.50  0.0000E+000  
  334.00  0.0000E+000  
  334.50  0.0000E+000  
  335.00  0.0000E+000  
  335.50  6.1651E-005  
  336.00  1.0255E-004  
  336.50  1.4617E-004  
  337.00  8.4189E-005  
  337.50  0.0000E+000  
  338.00  0.0000E+000  
  338.50  0.0000E+000  
  339.00  0.0000E+000  
  339.50  0.0000E+000  
  340.00  0.0000E+000  
  340.50  3.0112E-005  
  341.00  0.0000E+000  
  341.50  0.0000E+000  
  342.00  0.0000E+000  
  342.50  0.0000E+000  
  343.00  0.0000E+000  
  343.50  0.0000E+000  
  344.00  0.0000E+000  
  344.50  0.0000E+000  
  345.00  0.0000E+000  
  345.50  0.0000E+000  
  346.00  0.0000E+000  
  346.50  0.0000E+000  
  347.00  0.0000E+000  
  347.50  0.0000E+000  
  348.00  0.0000E+000  
  348.50  0.0000E+000  
  349.00  0.0000E+000  
  349.50  0.0000E+000  
  350.00  0.0000E+000  
  350.50  0.0000E+000  
  351.00  0.0000E+000  
  351.50  0.0000E+000  
  352.00  0.0000E+000  
  352.50  0.0000E+000  
  353.00  0.0000E+000  
  353.50  0.0000E+000  
  354.00  0.0000E+000  
  354.50  0.0000E+000  
  355.00  0.0000E+000  
  355.50  0.0000E+000  
  356.00  0.0000E+000  
  356.50  1.9157E-004  
  357.00  4.4384E-004  
  357.50  1.7909E-004  
  358.00  6.3358E-006  
  358.50  0.0000E+000  
  359.00  0.0000E+000  
  359.50  0.0000E+000  
  360.00  0.0000E+000  
  360.50  0.0000E+000  
  361.00  0.0000E+000  
  361.50  0.0000E+000  
  362.00  0.0000E+000  
  362.50  0.0000E+000  
  363.00  0.0000E+000  
  363.50  0.0000E+000  
  364.00  0.0000E+000  
  364.50  0.0000E+000  
  365.00  0.0000E+000  
  365.50  0.0000E+000  
  366.00  0.0000E+000  
  366.50  0.0000E+000  
  367.00  0.0000E+000  
  367.50  0.0000E+000  
  368.00  0.0000E+000  
  368.50  4.2384E-005  
  369.00  3.6497E-005  
  369.50  0.0000E+000  
  370.00  0.0000E+000  
  370.50  0.0000E+000  
  371.00  0.0000E+000  
  371.50  0.0000E+000  
  372.00  0.0000E+000  
  372.50  0.0000E+000  
  373.00  0.0000E+000  
  373.50  0.0000E+000  
  374.00  0.0000E+000  
  374.50  0.0000E+000  
  375.00  0.0000E+000  
  375.50  2.1697E-006  
  376.00  1.3691E-005  
  376.50  0.0000E+000  
  377.00  0.0000E+000  
  377.50  0.0000E+000  
  378.00  0.0000E+000  
  378.50  8.0463E-005  
  379.00  4.6797E-004  
  379.50  5.0890E-004  
  380.00  1.7286E-004  
  380.50  0.0000E+000  
  381.00  3.3136E-006  
  381.50  9.6379E-005  
  382.00  1.2457E-004  
  382.50  1.0002E-005  
  383.00  0.0000E+000  
  383.50  0.0000E+000  
  384.00  0.0000E+000  
  384.50  3.5116E-006  
  385.00  1.2013E-004  
  385.50  4.6187E-004  
  386.00  6.3696E-004  
  386.50  7.2843E-004  
  387.00  4.5162E-004  
  387.50  9.8798E-005  
  388.00  0.0000E+000  
  388.50  0.0000E+000  
  389.00  0.0000E+000  
  389.50  0.0000E+000  
  390.00  9.9161E-005  
  390.50  7.6456E-004  
  391.00  1.3689E-003  
  391.50  1.4683E-003  
  392.00  1.2898E-003  
  392.50  1.1177E-003  
  393.00  1.1869E-003  
  393.50  1.1772E-003  
  394.00  9.4094E-004  
  394.50  5.2816E-004  
  395.00  3.9838E-004  
  395.50  5.6800E-004  
  396.00  7.4701E-004  
  396.50  1.0049E-003  
  397.00  1.2140E-003  
  397.50  1.1900E-003  
  398.00  1.3347E-003  
  398.50  1.5361E-003  
  399.00  2.0384E-003  
  399.50  2.7086E-003  
  400.00  3.6261E-003  
  400.50  4.8549E-003  
  401.00  6.7076E-003  
  401.50  8.8652E-003  
  402.00  1.0277E-002  
  402.50  1.0761E-002  
  403.00  1.0414E-002  
  403.50  1.0702E-002  
  404.00  1.1788E-002  
  404.50  1.2850E-002  
  405.00  1.3032E-002  
  405.50  1.1814E-002  
  406.00  1.0309E-002  
  406.50  9.7061E-003  
  407.00  1.0891E-002  
  407.50  1.3004E-002  
  408.00  1.4431E-002  
  408.50  1.4250E-002  
  409.00  1.2430E-002  
  409.50  1.0233E-002  
  410.00  8.8804E-003  
  410.50  8.1421E-003  
  411.00  8.0575E-003  
  411.50  8.2229E-003  
  412.00  9.2573E-003  
  412.50  1.1364E-002  
  413.00  1.3586E-002  
  413.50  1.5537E-002  
  414.00  1.6882E-002  
  414.50  1.7940E-002  
  415.00  1.9327E-002  
  415.50  2.0642E-002  
  416.00  2.0837E-002  
  416.50  1.9398E-002  
  417.00  1.6773E-002  
  417.50  1.4099E-002  
  418.00  1.2240E-002  
  418.50  1.1656E-002  
  419.00  1.1650E-002  
  419.50  1.2358E-002  
  420.00  1.3722E-002  
  420.50  1.5411E-002  
  421.00  1.6785E-002  
  421.50  1.7959E-002  
  422.00  1.9462E-002  
  422.50  2.2208E-002  
  423.00  2.5897E-002  
  423.50  3.0068E-002  
  424.00  3.2583E-002  
  424.50  3.2279E-002  
  425.00  2.8766E-002  
  425.50  2.3929E-002  
  426.00  1.9567E-002  
  426.50  1.6915E-002  
  427.00  1.6649E-002  
  427.50  1.7199E-002  
  428.00  1.8116E-002  
  428.50  1.8238E-002  
  429.00  1.7844E-002  
  429.50  1.8530E-002  
  430.00  2.1713E-002  
  430.50  2.7610E-002  
  431.00  3.3810E-002  
  431.50  3.7362E-002  
  432.00  3.5647E-002  
  432.50  3.0749E-002  
  433.00  2.5638E-002  
  433.50  2.3447E-002  
  434.00  2.6837E-002  
  434.50  3.7706E-002  
  435.00  5.1759E-002  
  435.50  6.1480E-002  
  436.00  6.0904E-002  
  436.50  5.2438E-002  
  437.00  4.1329E-002  
  437.50  3.2691E-002  
  438.00  2.7189E-002  
  438.50  2.4222E-002  
  439.00  2.3223E-002  
  439.50  2.3690E-002  
  440.00  2.4391E-002  
  440.50  2.4228E-002  
  441.00  2.3198E-002  
  441.50  2.1577E-002  
  442.00  1.9628E-002  
  442.50  1.7968E-002  
  443.00  1.6801E-002  
  443.50  1.6194E-002  
  444.00  1.5564E-002  
  444.50  1.4955E-002  
  445.00  1.4466E-002  
  445.50  1.4438E-002  
  446.00  1.4287E-002  
  446.50  1.4145E-002  
  447.00  1.4030E-002  
  447.50  1.4530E-002  
  448.00  1.5756E-002  
  448.50  1.6859E-002  
  449.00  1.7528E-002  
  449.50  1.7191E-002  
  450.00  1.6268E-002  
  450.50  1.5537E-002  
  451.00  1.4909E-002  
  451.50  1.4969E-002  
  452.00  1.4974E-002  
  452.50  1.5111E-002  
  453.00  1.5599E-002  
  453.50  1.6707E-002  
  454.00  1.7797E-002  
  454.50  1.9113E-002  
  455.00  1.9734E-002  
  455.50  2.0059E-002  
  456.00  2.0212E-002  
  456.50  1.9838E-002  
  457.00  1.9004E-002  
  457.50  1.7734E-002  
  458.00  1.6160E-002  
  458.50  1.5813E-002  
  459.00  1.5788E-002  
  459.50  1.5965E-002  
  460.00  1.5703E-002  
  460.50  1.4495E-002  
  461.00  1.3183E-002  
  461.50  1.1359E-002  
  462.00  9.9194E-003  
  462.50  8.8740E-003  
  463.00  8.7788E-003  
  463.50  9.0802E-003  
  464.00  9.7014E-003  
  464.50  1.0148E-002  
  465.00  1.1206E-002  
  465.50  1.3334E-002  
  466.00  1.6250E-002  
  466.50  1.8666E-002  
  467.00  1.9335E-002  
  467.50  1.8277E-002  
  468.00  1.6634E-002  
  468.50  1.5534E-002  
  469.00  1.6157E-002  
  469.50  1.8541E-002  
  470.00  2.2257E-002  
  470.50  2.5960E-002  
  471.00  2.8985E-002  
  471.50  3.3863E-002  
  472.00  4.4235E-002  
  472.50  6.0934E-002  
  473.00  7.8983E-002  
  473.50  8.9274E-002  
  474.00  8.6960E-002  
  474.50  7.1146E-002  
  475.00  5.1085E-002  
  475.50  3.4258E-002  
  476.00  2.3612E-002  
  476.50  1.9485E-002  
  477.00  1.9678E-002  
  477.50  2.1248E-002  
  478.00  2.1898E-002  
  478.50  2.0427E-002  
  479.00  1.7534E-002  
  479.50  1.4831E-002  
  480.00  1.3623E-002  
  480.50  1.3570E-002  
  481.00  1.4838E-002  
  481.50  1.7078E-002  
  482.00  2.0204E-002  
  482.50  2.3922E-002  
  483.00  2.7147E-002  
  483.50  2.8817E-002  
  484.00  2.8298E-002  
  484.50  2.5433E-002  
  485.00  2.1647E-002  
  485.50  1.8304E-002  
  486.00  1.6289E-002  
  486.50  1.5806E-002  
  487.00  1.6015E-002  
  487.50  1.6106E-002  
  488.00  1.5547E-002  
  488.50  1.4485E-002  
  489.00  1.3735E-002  
  489.50  1.3654E-002  
  490.00  1.4395E-002  
  490.50  1.5632E-002  
  491.00  1.6529E-002  
  491.50  1.6835E-002  
  492.00  1.6463E-002  
  492.50  1.6017E-002  
  493.00  1.6373E-002  
  493.50  1.7127E-002  
  494.00  1.8009E-002  
  494.50  1.8410E-002  
  495.00  1.7720E-002  
  495.50  1.6390E-002  
  496.00  1.5593E-002  
  496.50  1.7322E-002  
  497.00  2.1564E-002  
  497.50  2.6666E-002  
  498.00  2.9743E-002  
  498.50  2.8977E-002  
  499.00  2.5421E-002  
  499.50  2.0617E-002  
  500.00  1.6790E-002  
  500.50  1.5879E-002  
  501.00  1.7904E-002  
  501.50  2.1376E-002  
  502.00  2.4110E-002  
  502.50  2.4578E-002  
  503.00  2.3063E-002  
  503.50  2.0608E-002  
  504.00  1.8614E-002  
  504.50  1.7979E-002  
  505.00  2.1098E-002  
  505.50  2.9195E-002  
  506.00  4.2286E-002  
  506.50  5.9752E-002  
  507.00  8.4079E-002  
  507.50  1.1183E-001  
  508.00  1.3206E-001  
  508.50  1.3545E-001  
  509.00  1.1757E-001  
  509.50  9.1292E-002  
  510.00  6.7493E-002  
  510.50  5.0000E-002  
  511.00  3.7969E-002  
  511.50  2.8864E-002  
  512.00  2.1870E-002  
  512.50  1.5994E-002  
  513.00  1.2475E-002  
  513.50  1.1119E-002  
  514.00  1.1557E-002  
  514.50  1.2998E-002  
  515.00  1.4217E-002  
  515.50  1.4310E-002  
  516.00  1.2985E-002  
  516.50  1.1010E-002  
  517.00  9.5397E-003  
  517.50  8.8986E-003  
  518.00  8.8827E-003  
  518.50  9.5312E-003  
  519.00  1.1006E-002  
  519.50  1.3763E-002  
  520.00  1.7630E-002  
  520.50  2.1795E-002  
  521.00  2.4471E-002  
  521.50  2.4069E-002  
  522.00  2.1265E-002  
  522.50  1.7540E-002  
  523.00  1.4610E-002  
  523.50  1.2779E-002  
  524.00  1.1904E-002  
  524.50  1.2560E-002  
  525.00  1.4106E-002  
  525.50  1.5255E-002  
  526.00  1.4743E-002  
  526.50  1.2682E-002  
  527.00  1.1282E-002  
  527.50  1.1918E-002  
  528.00  1.3565E-002  
  528.50  1.4633E-002  
  529.00  1.4466E-002  
  529.50  1.3568E-002  
  530.00  1.2947E-002  
  530.50  1.2814E-002  
  531.00  1.2838E-002  
  531.50  1.3170E-002  
  532.00  1.4189E-002  
  532.50  1.7117E-002  
  533.00  2.3090E-002  
  533.50  3.3247E-002  
  534.00  4.6009E-002  
  534.50  5.6755E-002  
  535.00  5.9630E-002  
  535.50  5.1775E-002  
  536.00  3.9346E-002  
  536.50  2.9215E-002  
  537.00  2.5078E-002  
  537.50  2.5242E-002  
  538.00  2.7211E-002  
  538.50  2.9371E-002  
  539.00  2.9477E-002  
  539.50  2.6275E-002  
  540.00  2.1003E-002  
  540.50  1.6908E-002  
  541.00  1.5751E-002  
  541.50  1.6613E-002  
  542.00  1.8480E-002  
  542.50  2.1177E-002  
  543.00  2.5162E-002  
  543.50  3.0709E-002  
  544.00  4.0113E-002  
  544.50  5.7033E-002  
  545.00  8.4190E-002  
  545.50  1.1050E-001  
  546.00  1.1712E-001  
  546.50  1.0431E-001  
  547.00  8.3375E-002  
  547.50  7.0146E-002  
  548.00  6.4424E-002  
  548.50  5.5277E-002  
  549.00  4.0630E-002  
  549.50  2.7880E-002  
  550.00  2.5204E-002  
  550.50  3.3094E-002  
  551.00  4.6724E-002  
  551.50  5.6681E-002  
  552.00  5.6692E-002  
  552.50  4.6971E-002  
  553.00  3.4391E-002  
  553.50  2.5456E-002  
  554.00  2.1096E-002  
  554.50  1.9780E-002  
  555.00  1.9344E-002  
  555.50  1.9302E-002  
  556.00  1.9191E-002  
  556.50  1.8825E-002  
  557.00  1.8268E-002  
  557.50  1.8301E-002  
  558.00  1.9275E-002  
  558.50  2.0515E-002  
  559.00  2.0231E-002  
  559.50  1.8254E-002  
  560.00  1.5795E-002  
  560.50  1.4116E-002  
  561.00  1.3305E-002  
  561.50  1.2630E-002  
  562.00  1.1800E-002  
  562.50  1.1551E-002  
  563.00  1.2177E-002  
  563.50  1.3759E-002  
  564.00  1.6041E-002  
  564.50  1.8218E-002  
  565.00  2.1243E-002  
  565.50  2.7853E-002  
  566.00  4.0131E-002  
  566.50  5.5927E-002  
  567.00  7.1099E-002  
  567.50  8.3848E-002  
  568.00  9.4132E-002  
  568.50  9.8986E-002  
  569.00  9.7378E-002  
  569.50  9.1983E-002  
  570.00  8.8922E-002  
  570.50  8.9308E-002  
  571.00  8.7198E-002  
  571.50  7.7784E-002  
  572.00  6.1340E-002  
  572.50  4.2691E-002  
  573.00  2.7792E-002  
  573.50  1.8355E-002  
  574.00  1.4949E-002  
  574.50  1.5637E-002  
  575.00  2.1396E-002  
  575.50  3.2994E-002  
  576.00  4.8503E-002  
  576.50  5.9032E-002  
  577.00  6.0490E-002  
  577.50  5.5835E-002  
  578.00  5.3986E-002  
  578.50  5.7112E-002  
  579.00  5.6988E-002  
  579.50  4.8375E-002  
  580.00  3.4822E-002  
  580.50  2.2748E-002  
  581.00  1.5618E-002  
  581.50  1.1967E-002  
  582.00  1.0375E-002  
  582.50  9.5886E-003  
  583.00  9.1748E-003  
  583.50  8.9633E-003  
  584.00  9.1938E-003  
  584.50  9.6280E-003  
  585.00  1.0532E-002  
  585.50  1.1835E-002  
  586.00  1.4481E-002  
  586.50  2.2293E-002  
  587.00  4.0454E-002  
  587.50  7.2972E-002  
  588.00  1.1443E-001  
  588.50  1.5558E-001  
  589.00  1.8942E-001  
  589.50  2.1458E-001  
  590.00  2.2433E-001  
  590.50  2.1483E-001  
  591.00  1.8777E-001  
  591.50  1.5526E-001  
  592.00  1.2664E-001  
  592.50  1.0583E-001  
  593.00  9.0329E-002  
  593.50  7.9019E-002  
  594.00  7.0222E-002  
  594.50  6.3129E-002  
  595.00  5.7641E-002  
  595.50  5.3921E-002  
  596.00  5.2058E-002  
  596.50  5.0786E-002  
  597.00  4.9008E-002  
  597.50  4.6429E-002  
  598.00  4.4034E-002  
  598.50  4.2177E-002  
  599.00  4.0235E-002  
  599.50  3.6975E-002  
  600.00  3.3128E-002  
  600.50  2.9873E-002  
  601.00  2.8185E-002  
  601.50  2.7713E-002  
  602.00  2.7892E-002  
  602.50  2.7435E-002  
  603.00  2.6354E-002  
  603.50  2.4701E-002  
  604.00  2.3289E-002  
  604.50  2.2015E-002  
  605.00  2.0484E-002  
  605.50  1.8779E-002  
  606.00  1.7370E-002  
  606.50  1.6653E-002  
  607.00  1.6700E-002  
  607.50  1.6753E-002  
  608.00  1.6410E-002  
  608.50  1.5906E-002  
  609.00  1.5811E-002  
  609.50  1.6153E-002  
  610.00  1.6462E-002  
  610.50  1.5886E-002  
  611.00  1.5134E-002  
  611.50  1.4330E-002  
  612.00  1.4057E-002  
  612.50  1.3623E-002  
  613.00  1.3203E-002  
  613.50  1.3679E-002  
  614.00  1.5634E-002  
  614.50  1.8608E-002  
  615.00  2.1247E-002  
  615.50  2.2305E-002  
  616.00  2.1788E-002  
  616.50  2.0059E-002  
  617.00  1.8688E-002  
  617.50  1.8717E-002  
  618.00  2.0337E-002  
  618.50  2.2330E-002  
  619.00  2.4329E-002  
  619.50  2.7691E-002  
  620.00  3.3332E-002  
  620.50  3.8852E-002  
  621.00  3.9021E-002  
  621.50  3.3118E-002  
  622.00  2.5642E-002  
  622.50  2.3819E-002  
  623.00  3.0291E-002  
  623.50  3.9420E-002  
  624.00  4.4834E-002  
  624.50  4.4375E-002  
  625.00  4.2360E-002  
  625.50  4.0754E-002  
  626.00  3.7720E-002  
  626.50  3.2706E-002  
  627.00  2.8009E-002  
  627.50  2.5361E-002  
  628.00  2.3256E-002  
  628.50  2.1366E-002  
  629.00  2.3080E-002  
  629.50  3.0816E-002  
  630.00  4.1300E-002  
  630.50  4.5571E-002  
  631.00  3.9688E-002  
  631.50  2.8316E-002  
  632.00  1.8763E-002  
  632.50  1.4170E-002  
  633.00  1.2805E-002  
  633.50  1.3239E-002  
  634.00  1.3972E-002  
  634.50  1.3708E-002  
  635.00  1.2129E-002  
  635.50  1.0426E-002  
  636.00  9.8737E-003  
  636.50  1.1653E-002  
  637.00  1.5365E-002  
  637.50  1.8618E-002  
  638.00  1.8787E-002  
  638.50  1.5700E-002  
  639.00  1.1750E-002  
  639.50  1.0008E-002  
  640.00  1.1762E-002  
  640.50  1.6369E-002  
  641.00  2.0194E-002  
  641.50  2.0095E-002  
  642.00  1.6103E-002  
  642.50  1.1406E-002  
  643.00  8.8279E-003  
  643.50  8.3992E-003  
  644.00  9.4540E-003  
  644.50  1.1320E-002  
  645.00  1.3780E-002  
  645.50  1.5233E-002  
  646.00  1.4746E-002  
  646.50  1.2266E-002  
  647.00  9.7711E-003  
  647.50  7.9920E-003  
  648.00  7.6522E-003  
  648.50  7.6441E-003  
  649.00  7.6556E-003  
  649.50  7.5165E-003  
  650.00  7.4442E-003  
  650.50  7.6129E-003  
  651.00  7.6157E-003  
  651.50  7.8587E-003  
  652.00  8.8523E-003  
  652.50  1.0097E-002  
  653.00  1.0658E-002  
  653.50  9.7521E-003  
  654.00  8.3155E-003  
  654.50  7.6127E-003  
  655.00  7.5535E-003  
  655.50  7.7761E-003  
  656.00  7.3478E-003  
  656.50  7.1166E-003  
  657.00  7.8559E-003  
  657.50  1.0282E-002  
  658.00  1.4001E-002  
  658.50  1.6935E-002  
  659.00  1.7429E-002  
  659.50  1.5175E-002  
  660.00  1.2005E-002  
  660.50  9.4311E-003  
  661.00  7.5746E-003  
  661.50  6.3321E-003  
  662.00  5.4900E-003  
  662.50  5.3767E-003  
  663.00  5.5002E-003  
  663.50  5.6116E-003  
  664.00  5.5528E-003  
  664.50  5.7289E-003  
  665.00  6.3672E-003  
  665.50  7.4583E-003  
  666.00  8.0088E-003  
  666.50  7.8557E-003  
  667.00  7.0285E-003  
  667.50  6.2100E-003  
  668.00  5.7333E-003  
  668.50  5.6878E-003  
  669.00  7.4035E-003  
  669.50  1.1963E-002  
  670.00  1.9555E-002  
  670.50  2.5934E-002  
  671.00  2.6660E-002  
  671.50  2.1435E-002  
  672.00  1.4877E-002  
  672.50  1.1382E-002  
  673.00  1.1218E-002  
  673.50  1.1974E-002  
  674.00  1.1696E-002  
  674.50  1.0278E-002  
  675.00  9.0343E-003  
  675.50  8.4725E-003  
  676.00  7.9956E-003  
  676.50  7.5039E-003  
  677.00  6.9667E-003  
  677.50  7.1759E-003  
  678.00  7.2608E-003  
  678.50  7.3840E-003  
  679.00  7.1276E-003  
  679.50  6.7053E-003  
  680.00  6.5176E-003  
