
# From lspdd.org
# 
# Name: DEL DALS Cylinder-1014 Domestique
# Indice spectral Valeur 
# MSI 0.47 
# SLI 0.67 
# IPI 0.69 
# Pourcentage de bleu 29.8 
# Caractéristique Valeur 
# CCT calculée (K) 3921 
# CCT du fabricant (K) 4000 
# Tension (V) 120 
# Puissance (W) 20.0 
# Efficacité lumineuse (Lum/W) 90.0 
#
# Image: '/app/system/img_2s/2642/medium_image2.jpg?1432222902'
# Image: '/app/system/img_1s/2642/medium_image1.jpg?1432222891'
# 

  273.00  0.0000E+000  
  273.50  0.0000E+000  
  274.00  0.0000E+000  
  274.50  0.0000E+000  
  275.00  0.0000E+000  
  275.50  0.0000E+000  
  276.00  0.0000E+000  
  276.50  0.0000E+000  
  277.00  0.0000E+000  
  277.50  0.0000E+000  
  278.00  0.0000E+000  
  278.50  0.0000E+000  
  279.00  0.0000E+000  
  279.50  0.0000E+000  
  280.00  0.0000E+000  
  280.50  0.0000E+000  
  281.00  0.0000E+000  
  281.50  0.0000E+000  
  282.00  0.0000E+000  
  282.50  0.0000E+000  
  283.00  0.0000E+000  
  283.50  0.0000E+000  
  284.00  0.0000E+000  
  284.50  0.0000E+000  
  285.00  0.0000E+000  
  285.50  0.0000E+000  
  286.00  0.0000E+000  
  286.50  0.0000E+000  
  287.00  0.0000E+000  
  287.50  0.0000E+000  
  288.00  0.0000E+000  
  288.50  0.0000E+000  
  289.00  0.0000E+000  
  289.50  0.0000E+000  
  290.00  0.0000E+000  
  290.50  0.0000E+000  
  291.00  0.0000E+000  
  291.50  0.0000E+000  
  292.00  0.0000E+000  
  292.50  0.0000E+000  
  293.00  0.0000E+000  
  293.50  0.0000E+000  
  294.00  0.0000E+000  
  294.50  0.0000E+000  
  295.00  0.0000E+000  
  295.50  0.0000E+000  
  296.00  0.0000E+000  
  296.50  0.0000E+000  
  297.00  0.0000E+000  
  297.50  0.0000E+000  
  298.00  0.0000E+000  
  298.50  0.0000E+000  
  299.00  0.0000E+000  
  299.50  0.0000E+000  
  300.00  1.2296E-004  
  300.50  3.1208E-004  
  301.00  1.4172E-004  
  301.50  4.9986E-005  
  302.00  3.6282E-005  
  302.50  3.4049E-006  
  303.00  3.9656E-004  
  303.50  5.8361E-004  
  304.00  7.9648E-004  
  304.50  9.8695E-004  
  305.00  8.0900E-004  
  305.50  9.1665E-004  
  306.00  9.9066E-004  
  306.50  1.2259E-003  
  307.00  1.7146E-003  
  307.50  1.7616E-003  
  308.00  2.0058E-003  
  308.50  2.2431E-003  
  309.00  2.3211E-003  
  309.50  2.4217E-003  
  310.00  2.3999E-003  
  310.50  2.1557E-003  
  311.00  1.7320E-003  
  311.50  1.9768E-003  
  312.00  1.8355E-003  
  312.50  1.7986E-003  
  313.00  1.7877E-003  
  313.50  1.2831E-003  
  314.00  1.0054E-003  
  314.50  7.3987E-004  
  315.00  8.9029E-004  
  315.50  1.2811E-003  
  316.00  1.7527E-003  
  316.50  2.0021E-003  
  317.00  1.5544E-003  
  317.50  1.2009E-003  
  318.00  1.1251E-003  
  318.50  1.2011E-003  
  319.00  1.6220E-003  
  319.50  1.4851E-003  
  320.00  1.4529E-003  
  320.50  1.4344E-003  
  321.00  1.4972E-003  
  321.50  1.5164E-003  
  322.00  1.3446E-003  
  322.50  1.2519E-003  
  323.00  1.2567E-003  
  323.50  1.6576E-003  
  324.00  2.0218E-003  
  324.50  2.1902E-003  
  325.00  2.1706E-003  
  325.50  1.6578E-003  
  326.00  1.1591E-003  
  326.50  9.0970E-004  
  327.00  9.7628E-004  
  327.50  1.5332E-003  
  328.00  1.8239E-003  
  328.50  1.8136E-003  
  329.00  1.9480E-003  
  329.50  2.1084E-003  
  330.00  2.3636E-003  
  330.50  2.3495E-003  
  331.00  2.0309E-003  
  331.50  1.4349E-003  
  332.00  1.1628E-003  
  332.50  1.0080E-003  
  333.00  7.9583E-004  
  333.50  7.6999E-004  
  334.00  6.4087E-004  
  334.50  7.6379E-004  
  335.00  9.3971E-004  
  335.50  9.8958E-004  
  336.00  9.4671E-004  
  336.50  5.9350E-004  
  337.00  4.0227E-004  
  337.50  2.5188E-004  
  338.00  3.5510E-004  
  338.50  4.4800E-004  
  339.00  6.9879E-004  
  339.50  1.1547E-003  
  340.00  1.5895E-003  
  340.50  1.6769E-003  
  341.00  1.3197E-003  
  341.50  7.8567E-004  
  342.00  2.4404E-004  
  342.50  1.6915E-004  
  343.00  9.7346E-005  
  343.50  1.7778E-004  
  344.00  3.4980E-004  
  344.50  6.7637E-004  
  345.00  9.5079E-004  
  345.50  1.1408E-003  
  346.00  1.0642E-003  
  346.50  1.1321E-003  
  347.00  1.4304E-003  
  347.50  1.5033E-003  
  348.00  1.5302E-003  
  348.50  1.4599E-003  
  349.00  1.5491E-003  
  349.50  1.5086E-003  
  350.00  1.5154E-003  
  350.50  1.4586E-003  
  351.00  1.4039E-003  
  351.50  1.5989E-003  
  352.00  1.6421E-003  
  352.50  1.2975E-003  
  353.00  1.3621E-003  
  353.50  1.2503E-003  
  354.00  1.2606E-003  
  354.50  1.3651E-003  
  355.00  1.2173E-003  
  355.50  1.3904E-003  
  356.00  1.6043E-003  
  356.50  1.9728E-003  
  357.00  2.1872E-003  
  357.50  1.7707E-003  
  358.00  1.4238E-003  
  358.50  1.0901E-003  
  359.00  1.1860E-003  
  359.50  1.2770E-003  
  360.00  1.4603E-003  
  360.50  1.4329E-003  
  361.00  1.5609E-003  
  361.50  1.7939E-003  
  362.00  1.5462E-003  
  362.50  1.0736E-003  
  363.00  3.9752E-004  
  363.50  4.9833E-005  
  364.00  3.7026E-004  
  364.50  7.6152E-004  
  365.00  9.1299E-004  
  365.50  9.8964E-004  
  366.00  8.3154E-004  
  366.50  9.7906E-004  
  367.00  1.3464E-003  
  367.50  1.4710E-003  
  368.00  1.5631E-003  
  368.50  1.7343E-003  
  369.00  1.7015E-003  
  369.50  1.7863E-003  
  370.00  1.6490E-003  
  370.50  1.3885E-003  
  371.00  1.3157E-003  
  371.50  1.1140E-003  
  372.00  1.0557E-003  
  372.50  1.0105E-003  
  373.00  6.5713E-004  
  373.50  1.2899E-004  
  374.00  0.0000E+000  
  374.50  1.1200E-004  
  375.00  8.4930E-004  
  375.50  1.7442E-003  
  376.00  2.0955E-003  
  376.50  2.0970E-003  
  377.00  1.9177E-003  
  377.50  1.7960E-003  
  378.00  1.9450E-003  
  378.50  2.2098E-003  
  379.00  2.2778E-003  
  379.50  2.0134E-003  
  380.00  1.5667E-003  
  380.50  1.0764E-003  
  381.00  9.7405E-004  
  381.50  9.9736E-004  
  382.00  1.3218E-003  
  382.50  1.6047E-003  
  383.00  1.7530E-003  
  383.50  1.7858E-003  
  384.00  1.5753E-003  
  384.50  1.4529E-003  
  385.00  1.4732E-003  
  385.50  1.6880E-003  
  386.00  1.9065E-003  
  386.50  1.8414E-003  
  387.00  1.6160E-003  
  387.50  1.4835E-003  
  388.00  1.5001E-003  
  388.50  1.6505E-003  
  389.00  1.8078E-003  
  389.50  1.9067E-003  
  390.00  2.1078E-003  
  390.50  2.4389E-003  
  391.00  2.3606E-003  
  391.50  1.9558E-003  
  392.00  1.6015E-003  
  392.50  1.4971E-003  
  393.00  1.6932E-003  
  393.50  1.8149E-003  
  394.00  1.6976E-003  
  394.50  1.2881E-003  
  395.00  9.6027E-004  
  395.50  9.5220E-004  
  396.00  9.8891E-004  
  396.50  1.2643E-003  
  397.00  1.6281E-003  
  397.50  1.6535E-003  
  398.00  1.6688E-003  
  398.50  1.6894E-003  
  399.00  1.6428E-003  
  399.50  1.8258E-003  
  400.00  2.1747E-003  
  400.50  2.2314E-003  
  401.00  2.3733E-003  
  401.50  2.3045E-003  
  402.00  2.1245E-003  
  402.50  2.2107E-003  
  403.00  2.0796E-003  
  403.50  2.3034E-003  
  404.00  2.6100E-003  
  404.50  2.7179E-003  
  405.00  3.1755E-003  
  405.50  3.3353E-003  
  406.00  3.2212E-003  
  406.50  3.1735E-003  
  407.00  2.5618E-003  
  407.50  2.4229E-003  
  408.00  2.4304E-003  
  408.50  2.6061E-003  
  409.00  2.7852E-003  
  409.50  2.9627E-003  
  410.00  3.1586E-003  
  410.50  3.5164E-003  
  411.00  4.0781E-003  
  411.50  4.2005E-003  
  412.00  4.0272E-003  
  412.50  3.6859E-003  
  413.00  3.4164E-003  
  413.50  3.8090E-003  
  414.00  4.4140E-003  
  414.50  4.9588E-003  
  415.00  5.3868E-003  
  415.50  5.6204E-003  
  416.00  5.8657E-003  
  416.50  6.0178E-003  
  417.00  6.1395E-003  
  417.50  6.3446E-003  
  418.00  6.8560E-003  
  418.50  7.2846E-003  
  419.00  7.7214E-003  
  419.50  8.2255E-003  
  420.00  9.0707E-003  
  420.50  1.0139E-002  
  421.00  1.0992E-002  
  421.50  1.1480E-002  
  422.00  1.1970E-002  
  422.50  1.2678E-002  
  423.00  1.3486E-002  
  423.50  1.4576E-002  
  424.00  1.5348E-002  
  424.50  1.6274E-002  
  425.00  1.7241E-002  
  425.50  1.8247E-002  
  426.00  1.9387E-002  
  426.50  2.0206E-002  
  427.00  2.1443E-002  
  427.50  2.2661E-002  
  428.00  2.4354E-002  
  428.50  2.6081E-002  
  429.00  2.7609E-002  
  429.50  2.9187E-002  
  430.00  3.1199E-002  
  430.50  3.3666E-002  
  431.00  3.5950E-002  
  431.50  3.8322E-002  
  432.00  4.0553E-002  
  432.50  4.3118E-002  
  433.00  4.5729E-002  
  433.50  4.8376E-002  
  434.00  5.1362E-002  
  434.50  5.4419E-002  
  435.00  5.7985E-002  
  435.50  6.1511E-002  
  436.00  6.5146E-002  
  436.50  6.8870E-002  
  437.00  7.2860E-002  
  437.50  7.7165E-002  
  438.00  8.1532E-002  
  438.50  8.6528E-002  
  439.00  9.2063E-002  
  439.50  9.8139E-002  
  440.00  1.0512E-001  
  440.50  1.1189E-001  
  441.00  1.1895E-001  
  441.50  1.2646E-001  
  442.00  1.3474E-001  
  442.50  1.4398E-001  
  443.00  1.5325E-001  
  443.50  1.6338E-001  
  444.00  1.7416E-001  
  444.50  1.8610E-001  
  445.00  1.9832E-001  
  445.50  2.1144E-001  
  446.00  2.2466E-001  
  446.50  2.3831E-001  
  447.00  2.5186E-001  
  447.50  2.6467E-001  
  448.00  2.7890E-001  
  448.50  2.9174E-001  
  449.00  3.0399E-001  
  449.50  3.1403E-001  
  450.00  3.2354E-001  
  450.50  3.3389E-001  
  451.00  3.4365E-001  
  451.50  3.5117E-001  
  452.00  3.5734E-001  
  452.50  3.6163E-001  
  453.00  3.6478E-001  
  453.50  3.6630E-001  
  454.00  3.6440E-001  
  454.50  3.6184E-001  
  455.00  3.5796E-001  
  455.50  3.5234E-001  
  456.00  3.4426E-001  
  456.50  3.3471E-001  
  457.00  3.2524E-001  
  457.50  3.1679E-001  
  458.00  3.0807E-001  
  458.50  2.9909E-001  
  459.00  2.8959E-001  
  459.50  2.7895E-001  
  460.00  2.6811E-001  
  460.50  2.5719E-001  
  461.00  2.4839E-001  
  461.50  2.4020E-001  
  462.00  2.3268E-001  
  462.50  2.2520E-001  
  463.00  2.1830E-001  
  463.50  2.1227E-001  
  464.00  2.0719E-001  
  464.50  2.0198E-001  
  465.00  1.9714E-001  
  465.50  1.9229E-001  
  466.00  1.8750E-001  
  466.50  1.8306E-001  
  467.00  1.7878E-001  
  467.50  1.7540E-001  
  468.00  1.7192E-001  
  468.50  1.6841E-001  
  469.00  1.6460E-001  
  469.50  1.6086E-001  
  470.00  1.5709E-001  
  470.50  1.5391E-001  
  471.00  1.4972E-001  
  471.50  1.4517E-001  
  472.00  1.4058E-001  
  472.50  1.3671E-001  
  473.00  1.3371E-001  
  473.50  1.3128E-001  
  474.00  1.2845E-001  
  474.50  1.2517E-001  
  475.00  1.2178E-001  
  475.50  1.1893E-001  
  476.00  1.1598E-001  
  476.50  1.1343E-001  
  477.00  1.1120E-001  
  477.50  1.0875E-001  
  478.00  1.0695E-001  
  478.50  1.0521E-001  
  479.00  1.0389E-001  
  479.50  1.0254E-001  
  480.00  1.0084E-001  
  480.50  9.9117E-002  
  481.00  9.7911E-002  
  481.50  9.7430E-002  
  482.00  9.7458E-002  
  482.50  9.7276E-002  
  483.00  9.6796E-002  
  483.50  9.6021E-002  
  484.00  9.5532E-002  
  484.50  9.5270E-002  
  485.00  9.5407E-002  
  485.50  9.5699E-002  
  486.00  9.5919E-002  
  486.50  9.5971E-002  
  487.00  9.6003E-002  
  487.50  9.6182E-002  
  488.00  9.6817E-002  
  488.50  9.7395E-002  
  489.00  9.7787E-002  
  489.50  9.7816E-002  
  490.00  9.8241E-002  
  490.50  9.9149E-002  
  491.00  1.0020E-001  
  491.50  1.0108E-001  
  492.00  1.0174E-001  
  492.50  1.0236E-001  
  493.00  1.0363E-001  
  493.50  1.0492E-001  
  494.00  1.0635E-001  
  494.50  1.0786E-001  
  495.00  1.0927E-001  
  495.50  1.1083E-001  
  496.00  1.1248E-001  
  496.50  1.1426E-001  
  497.00  1.1588E-001  
  497.50  1.1765E-001  
  498.00  1.1898E-001  
  498.50  1.2050E-001  
  499.00  1.2219E-001  
  499.50  1.2397E-001  
  500.00  1.2589E-001  
  500.50  1.2787E-001  
  501.00  1.2996E-001  
  501.50  1.3189E-001  
  502.00  1.3404E-001  
  502.50  1.3608E-001  
  503.00  1.3820E-001  
  503.50  1.4003E-001  
  504.00  1.4131E-001  
  504.50  1.4285E-001  
  505.00  1.4454E-001  
  505.50  1.4660E-001  
  506.00  1.4862E-001  
  506.50  1.5056E-001  
  507.00  1.5238E-001  
  507.50  1.5409E-001  
  508.00  1.5558E-001  
  508.50  1.5703E-001  
  509.00  1.5827E-001  
  509.50  1.5982E-001  
  510.00  1.6124E-001  
  510.50  1.6296E-001  
  511.00  1.6477E-001  
  511.50  1.6659E-001  
  512.00  1.6829E-001  
  512.50  1.6985E-001  
  513.00  1.7133E-001  
  513.50  1.7296E-001  
  514.00  1.7438E-001  
  514.50  1.7604E-001  
  515.00  1.7766E-001  
  515.50  1.7917E-001  
  516.00  1.8079E-001  
  516.50  1.8236E-001  
  517.00  1.8426E-001  
  517.50  1.8613E-001  
  518.00  1.8794E-001  
  518.50  1.8949E-001  
  519.00  1.9076E-001  
  519.50  1.9214E-001  
  520.00  1.9360E-001  
  520.50  1.9525E-001  
  521.00  1.9732E-001  
  521.50  1.9920E-001  
  522.00  2.0068E-001  
  522.50  2.0194E-001  
  523.00  2.0310E-001  
  523.50  2.0490E-001  
  524.00  2.0702E-001  
  524.50  2.0903E-001  
  525.00  2.1061E-001  
  525.50  2.1215E-001  
  526.00  2.1318E-001  
  526.50  2.1489E-001  
  527.00  2.1641E-001  
  527.50  2.1853E-001  
  528.00  2.2070E-001  
  528.50  2.2266E-001  
  529.00  2.2415E-001  
  529.50  2.2459E-001  
  530.00  2.2546E-001  
  530.50  2.2699E-001  
  531.00  2.2899E-001  
  531.50  2.3103E-001  
  532.00  2.3261E-001  
  532.50  2.3412E-001  
  533.00  2.3535E-001  
  533.50  2.3609E-001  
  534.00  2.3682E-001  
  534.50  2.3808E-001  
  535.00  2.3975E-001  
  535.50  2.4130E-001  
  536.00  2.4275E-001  
  536.50  2.4421E-001  
  537.00  2.4599E-001  
  537.50  2.4734E-001  
  538.00  2.4833E-001  
  538.50  2.4928E-001  
  539.00  2.5064E-001  
  539.50  2.5239E-001  
  540.00  2.5369E-001  
  540.50  2.5474E-001  
  541.00  2.5523E-001  
  541.50  2.5602E-001  
  542.00  2.5728E-001  
  542.50  2.5879E-001  
  543.00  2.6047E-001  
  543.50  2.6186E-001  
  544.00  2.6290E-001  
  544.50  2.6321E-001  
  545.00  2.6415E-001  
  545.50  2.6499E-001  
  546.00  2.6653E-001  
  546.50  2.6762E-001  
  547.00  2.6861E-001  
  547.50  2.6942E-001  
  548.00  2.7004E-001  
  548.50  2.7034E-001  
  549.00  2.7152E-001  
  549.50  2.7262E-001  
  550.00  2.7379E-001  
  550.50  2.7456E-001  
  551.00  2.7549E-001  
  551.50  2.7683E-001  
  552.00  2.7779E-001  
  552.50  2.7846E-001  
  553.00  2.7895E-001  
  553.50  2.7939E-001  
  554.00  2.8003E-001  
  554.50  2.8075E-001  
  555.00  2.8155E-001  
  555.50  2.8256E-001  
  556.00  2.8386E-001  
  556.50  2.8484E-001  
  557.00  2.8566E-001  
  557.50  2.8568E-001  
  558.00  2.8605E-001  
  558.50  2.8667E-001  
  559.00  2.8775E-001  
  559.50  2.8830E-001  
  560.00  2.8849E-001  
  560.50  2.8893E-001  
  561.00  2.8945E-001  
  561.50  2.9036E-001  
  562.00  2.9025E-001  
  562.50  2.9050E-001  
  563.00  2.9081E-001  
  563.50  2.9139E-001  
  564.00  2.9169E-001  
  564.50  2.9165E-001  
  565.00  2.9192E-001  
  565.50  2.9240E-001  
  566.00  2.9270E-001  
  566.50  2.9288E-001  
  567.00  2.9287E-001  
  567.50  2.9292E-001  
  568.00  2.9339E-001  
  568.50  2.9313E-001  
  569.00  2.9281E-001  
  569.50  2.9243E-001  
  570.00  2.9253E-001  
  570.50  2.9335E-001  
  571.00  2.9414E-001  
  571.50  2.9443E-001  
  572.00  2.9447E-001  
  572.50  2.9460E-001  
  573.00  2.9513E-001  
  573.50  2.9571E-001  
  574.00  2.9584E-001  
  574.50  2.9593E-001  
  575.00  2.9666E-001  
  575.50  2.9755E-001  
  576.00  2.9835E-001  
  576.50  2.9852E-001  
  577.00  2.9845E-001  
  577.50  2.9853E-001  
  578.00  2.9896E-001  
  578.50  2.9986E-001  
  579.00  3.0098E-001  
  579.50  3.0189E-001  
  580.00  3.0211E-001  
  580.50  3.0206E-001  
  581.00  3.0215E-001  
  581.50  3.0284E-001  
  582.00  3.0386E-001  
  582.50  3.0499E-001  
  583.00  3.0529E-001  
  583.50  3.0573E-001  
  584.00  3.0586E-001  
  584.50  3.0651E-001  
  585.00  3.0688E-001  
  585.50  3.0726E-001  
  586.00  3.0716E-001  
  586.50  3.0756E-001  
  587.00  3.0756E-001  
  587.50  3.0850E-001  
  588.00  3.0923E-001  
  588.50  3.1031E-001  
  589.00  3.1053E-001  
  589.50  3.1064E-001  
  590.00  3.1034E-001  
  590.50  3.1011E-001  
  591.00  3.1052E-001  
  591.50  3.1117E-001  
  592.00  3.1134E-001  
  592.50  3.1102E-001  
  593.00  3.1022E-001  
  593.50  3.0970E-001  
  594.00  3.0944E-001  
  594.50  3.0932E-001  
  595.00  3.0957E-001  
  595.50  3.0954E-001  
  596.00  3.0957E-001  
  596.50  3.0963E-001  
  597.00  3.0972E-001  
  597.50  3.0988E-001  
  598.00  3.0956E-001  
  598.50  3.0932E-001  
  599.00  3.0905E-001  
  599.50  3.0883E-001  
  600.00  3.0869E-001  
  600.50  3.0830E-001  
  601.00  3.0801E-001  
  601.50  3.0757E-001  
  602.00  3.0712E-001  
  602.50  3.0666E-001  
  603.00  3.0611E-001  
  603.50  3.0545E-001  
  604.00  3.0464E-001  
  604.50  3.0432E-001  
  605.00  3.0380E-001  
  605.50  3.0366E-001  
  606.00  3.0343E-001  
  606.50  3.0294E-001  
  607.00  3.0229E-001  
  607.50  3.0106E-001  
  608.00  2.9991E-001  
  608.50  2.9881E-001  
  609.00  2.9852E-001  
  609.50  2.9876E-001  
  610.00  2.9888E-001  
  610.50  2.9842E-001  
  611.00  2.9802E-001  
  611.50  2.9758E-001  
  612.00  2.9712E-001  
  612.50  2.9622E-001  
  613.00  2.9558E-001  
  613.50  2.9475E-001  
  614.00  2.9434E-001  
  614.50  2.9340E-001  
  615.00  2.9225E-001  
  615.50  2.9082E-001  
  616.00  2.9019E-001  
  616.50  2.8959E-001  
  617.00  2.8878E-001  
  617.50  2.8738E-001  
  618.00  2.8619E-001  
  618.50  2.8524E-001  
  619.00  2.8449E-001  
  619.50  2.8338E-001  
  620.00  2.8197E-001  
  620.50  2.8035E-001  
  621.00  2.7873E-001  
  621.50  2.7781E-001  
  622.00  2.7739E-001  
  622.50  2.7717E-001  
  623.00  2.7644E-001  
  623.50  2.7497E-001  
  624.00  2.7323E-001  
  624.50  2.7124E-001  
  625.00  2.6929E-001  
  625.50  2.6723E-001  
  626.00  2.6588E-001  
  626.50  2.6520E-001  
  627.00  2.6407E-001  
  627.50  2.6309E-001  
  628.00  2.6178E-001  
  628.50  2.6030E-001  
  629.00  2.5839E-001  
  629.50  2.5623E-001  
  630.00  2.5511E-001  
  630.50  2.5351E-001  
  631.00  2.5215E-001  
  631.50  2.5077E-001  
  632.00  2.5000E-001  
  632.50  2.4864E-001  
  633.00  2.4660E-001  
  633.50  2.4428E-001  
  634.00  2.4244E-001  
  634.50  2.4099E-001  
  635.00  2.3994E-001  
  635.50  2.3774E-001  
  636.00  2.3503E-001  
  636.50  2.3307E-001  
  637.00  2.3158E-001  
  637.50  2.3064E-001  
  638.00  2.2883E-001  
  638.50  2.2712E-001  
  639.00  2.2525E-001  
  639.50  2.2314E-001  
  640.00  2.2102E-001  
  640.50  2.1888E-001  
  641.00  2.1699E-001  
  641.50  2.1547E-001  
  642.00  2.1411E-001  
  642.50  2.1244E-001  
  643.00  2.1017E-001  
  643.50  2.0779E-001  
  644.00  2.0565E-001  
  644.50  2.0412E-001  
  645.00  2.0313E-001  
  645.50  2.0184E-001  
  646.00  2.0016E-001  
  646.50  1.9769E-001  
  647.00  1.9591E-001  
  647.50  1.9444E-001  
  648.00  1.9320E-001  
  648.50  1.9169E-001  
  649.00  1.8987E-001  
  649.50  1.8812E-001  
  650.00  1.8658E-001  
  650.50  1.8493E-001  
  651.00  1.8329E-001  
  651.50  1.8137E-001  
  652.00  1.7972E-001  
  652.50  1.7794E-001  
  653.00  1.7632E-001  
  653.50  1.7456E-001  
  654.00  1.7338E-001  
  654.50  1.7214E-001  
  655.00  1.7072E-001  
  655.50  1.6912E-001  
  656.00  1.6748E-001  
  656.50  1.6623E-001  
  657.00  1.6471E-001  
  657.50  1.6331E-001  
  658.00  1.6144E-001  
  658.50  1.5989E-001  
  659.00  1.5819E-001  
  659.50  1.5691E-001  
  660.00  1.5595E-001  
  660.50  1.5481E-001  
  661.00  1.5294E-001  
  661.50  1.5050E-001  
  662.00  1.4829E-001  
  662.50  1.4730E-001  
  663.00  1.4633E-001  
  663.50  1.4516E-001  
  664.00  1.4348E-001  
  664.50  1.4184E-001  
  665.00  1.4029E-001  
  665.50  1.3891E-001  
  666.00  1.3752E-001  
  666.50  1.3596E-001  
  667.00  1.3425E-001  
  667.50  1.3278E-001  
  668.00  1.3121E-001  
  668.50  1.2970E-001  
  669.00  1.2840E-001  
  669.50  1.2744E-001  
  670.00  1.2639E-001  
  670.50  1.2491E-001  
  671.00  1.2338E-001  
  671.50  1.2188E-001  
  672.00  1.2054E-001  
  672.50  1.1914E-001  
  673.00  1.1776E-001  
  673.50  1.1624E-001  
  674.00  1.1482E-001  
  674.50  1.1353E-001  
  675.00  1.1255E-001  
  675.50  1.1094E-001  
  676.00  1.0909E-001  
  676.50  1.0742E-001  
  677.00  1.0602E-001  
  677.50  1.0485E-001  
  678.00  1.0325E-001  
  678.50  1.0211E-001  
  679.00  1.0082E-001  
  679.50  9.9787E-002  
