
# From lspdd.org
# 
# Name: HM Philips - Industriel
# Indice spectral Valeur 
# MSI 0.45 
# SLI 0.59 
# IPI 0.62 
# Pourcentage de bleu 30.2 
# Caractéristique Valeur 
# CCT calculée (K) 3449 
# CCT du fabricant (K) 4000 
# Tension (V) 120 
# Puissance (W) 400.0 
# Efficacité lumineuse (Lum/W) 100.0 
#
# Image: '/app/system/img_2s/2644/medium_image2.JPG?1432222958'
# Image: '/app/system/img_1s/2644/medium_image1.JPG?1432222941'
# 

  273.00  0.0000E+000  
  273.50  0.0000E+000  
  274.00  0.0000E+000  
  274.50  0.0000E+000  
  275.00  0.0000E+000  
  275.50  0.0000E+000  
  276.00  0.0000E+000  
  276.50  0.0000E+000  
  277.00  0.0000E+000  
  277.50  0.0000E+000  
  278.00  0.0000E+000  
  278.50  0.0000E+000  
  279.00  0.0000E+000  
  279.50  0.0000E+000  
  280.00  0.0000E+000  
  280.50  0.0000E+000  
  281.00  0.0000E+000  
  281.50  0.0000E+000  
  282.00  0.0000E+000  
  282.50  0.0000E+000  
  283.00  0.0000E+000  
  283.50  0.0000E+000  
  284.00  0.0000E+000  
  284.50  0.0000E+000  
  285.00  0.0000E+000  
  285.50  0.0000E+000  
  286.00  0.0000E+000  
  286.50  0.0000E+000  
  287.00  0.0000E+000  
  287.50  0.0000E+000  
  288.00  0.0000E+000  
  288.50  0.0000E+000  
  289.00  0.0000E+000  
  289.50  0.0000E+000  
  290.00  0.0000E+000  
  290.50  0.0000E+000  
  291.00  0.0000E+000  
  291.50  0.0000E+000  
  292.00  0.0000E+000  
  292.50  0.0000E+000  
  293.00  0.0000E+000  
  293.50  0.0000E+000  
  294.00  0.0000E+000  
  294.50  0.0000E+000  
  295.00  0.0000E+000  
  295.50  0.0000E+000  
  296.00  0.0000E+000  
  296.50  0.0000E+000  
  297.00  0.0000E+000  
  297.50  0.0000E+000  
  298.00  0.0000E+000  
  298.50  0.0000E+000  
  299.00  0.0000E+000  
  299.50  0.0000E+000  
  300.00  0.0000E+000  
  300.50  0.0000E+000  
  301.00  0.0000E+000  
  301.50  0.0000E+000  
  302.00  0.0000E+000  
  302.50  0.0000E+000  
  303.00  0.0000E+000  
  303.50  0.0000E+000  
  304.00  0.0000E+000  
  304.50  0.0000E+000  
  305.00  0.0000E+000  
  305.50  0.0000E+000  
  306.00  0.0000E+000  
  306.50  0.0000E+000  
  307.00  0.0000E+000  
  307.50  2.4690E-004  
  308.00  1.5830E-004  
  308.50  3.1306E-005  
  309.00  7.7960E-006  
  309.50  5.3799E-006  
  310.00  5.1063E-006  
  310.50  0.0000E+000  
  311.00  0.0000E+000  
  311.50  0.0000E+000  
  312.00  2.0992E-005  
  312.50  2.1850E-004  
  313.00  4.8852E-004  
  313.50  4.0640E-004  
  314.00  2.2951E-004  
  314.50  7.8778E-005  
  315.00  0.0000E+000  
  315.50  0.0000E+000  
  316.00  0.0000E+000  
  316.50  0.0000E+000  
  317.00  0.0000E+000  
  317.50  0.0000E+000  
  318.00  0.0000E+000  
  318.50  0.0000E+000  
  319.00  1.7950E-004  
  319.50  1.5022E-004  
  320.00  8.3100E-005  
  320.50  0.0000E+000  
  321.00  0.0000E+000  
  321.50  0.0000E+000  
  322.00  0.0000E+000  
  322.50  0.0000E+000  
  323.00  0.0000E+000  
  323.50  0.0000E+000  
  324.00  0.0000E+000  
  324.50  5.9818E-005  
  325.00  7.7308E-005  
  325.50  0.0000E+000  
  326.00  0.0000E+000  
  326.50  0.0000E+000  
  327.00  0.0000E+000  
  327.50  5.1950E-005  
  328.00  3.3914E-004  
  328.50  3.2054E-004  
  329.00  4.7949E-004  
  329.50  5.2344E-004  
  330.00  2.9502E-004  
  330.50  6.5869E-005  
  331.00  0.0000E+000  
  331.50  0.0000E+000  
  332.00  0.0000E+000  
  332.50  0.0000E+000  
  333.00  0.0000E+000  
  333.50  0.0000E+000  
  334.00  0.0000E+000  
  334.50  1.2157E-004  
  335.00  2.9773E-004  
  335.50  5.0603E-004  
  336.00  6.4146E-004  
  336.50  5.2600E-004  
  337.00  3.8687E-004  
  337.50  1.1839E-004  
  338.00  1.6999E-005  
  338.50  0.0000E+000  
  339.00  0.0000E+000  
  339.50  0.0000E+000  
  340.00  9.4927E-005  
  340.50  2.6116E-004  
  341.00  1.2102E-004  
  341.50  2.9946E-005  
  342.00  0.0000E+000  
  342.50  0.0000E+000  
  343.00  0.0000E+000  
  343.50  0.0000E+000  
  344.00  0.0000E+000  
  344.50  0.0000E+000  
  345.00  0.0000E+000  
  345.50  0.0000E+000  
  346.00  0.0000E+000  
  346.50  0.0000E+000  
  347.00  0.0000E+000  
  347.50  5.3456E-005  
  348.00  8.5340E-005  
  348.50  6.7240E-005  
  349.00  1.7628E-004  
  349.50  1.4735E-004  
  350.00  0.0000E+000  
  350.50  0.0000E+000  
  351.00  0.0000E+000  
  351.50  0.0000E+000  
  352.00  0.0000E+000  
  352.50  0.0000E+000  
  353.00  0.0000E+000  
  353.50  0.0000E+000  
  354.00  0.0000E+000  
  354.50  0.0000E+000  
  355.00  0.0000E+000  
  355.50  1.3579E-004  
  356.00  3.6498E-004  
  356.50  7.0631E-004  
  357.00  6.1358E-004  
  357.50  1.5677E-004  
  358.00  8.1464E-006  
  358.50  0.0000E+000  
  359.00  0.0000E+000  
  359.50  0.0000E+000  
  360.00  7.4755E-005  
  360.50  1.7627E-004  
  361.00  3.2212E-004  
  361.50  3.2059E-004  
  362.00  5.3102E-005  
  362.50  0.0000E+000  
  363.00  0.0000E+000  
  363.50  0.0000E+000  
  364.00  0.0000E+000  
  364.50  0.0000E+000  
  365.00  0.0000E+000  
  365.50  0.0000E+000  
  366.00  0.0000E+000  
  366.50  0.0000E+000  
  367.00  0.0000E+000  
  367.50  0.0000E+000  
  368.00  0.0000E+000  
  368.50  1.3679E-004  
  369.00  3.8708E-005  
  369.50  0.0000E+000  
  370.00  0.0000E+000  
  370.50  0.0000E+000  
  371.00  0.0000E+000  
  371.50  0.0000E+000  
  372.00  0.0000E+000  
  372.50  0.0000E+000  
  373.00  0.0000E+000  
  373.50  0.0000E+000  
  374.00  0.0000E+000  
  374.50  0.0000E+000  
  375.00  0.0000E+000  
  375.50  0.0000E+000  
  376.00  0.0000E+000  
  376.50  0.0000E+000  
  377.00  7.0184E-005  
  377.50  0.0000E+000  
  378.00  0.0000E+000  
  378.50  0.0000E+000  
  379.00  0.0000E+000  
  379.50  4.5547E-005  
  380.00  5.1723E-005  
  380.50  1.6702E-005  
  381.00  1.1098E-004  
  381.50  1.5207E-004  
  382.00  2.8033E-004  
  382.50  1.3005E-004  
  383.00  0.0000E+000  
  383.50  4.2280E-005  
  384.00  1.3552E-004  
  384.50  2.3556E-004  
  385.00  4.1827E-004  
  385.50  5.4474E-004  
  386.00  5.1362E-004  
  386.50  5.1063E-004  
  387.00  3.3106E-004  
  387.50  4.0434E-005  
  388.00  0.0000E+000  
  388.50  0.0000E+000  
  389.00  0.0000E+000  
  389.50  2.1317E-005  
  390.00  4.3978E-004  
  390.50  1.1875E-003  
  391.00  1.3072E-003  
  391.50  1.0295E-003  
  392.00  7.7118E-004  
  392.50  8.4956E-004  
  393.00  1.1424E-003  
  393.50  1.1052E-003  
  394.00  7.7429E-004  
  394.50  1.2383E-004  
  395.00  0.0000E+000  
  395.50  0.0000E+000  
  396.00  3.1488E-005  
  396.50  3.0916E-004  
  397.00  5.3075E-004  
  397.50  4.8325E-004  
  398.00  7.2856E-004  
  398.50  1.0611E-003  
  399.00  1.5351E-003  
  399.50  2.0168E-003  
  400.00  2.6664E-003  
  400.50  3.4276E-003  
  401.00  4.5699E-003  
  401.50  6.1420E-003  
  402.00  6.9962E-003  
  402.50  7.5246E-003  
  403.00  7.5911E-003  
  403.50  7.8536E-003  
  404.00  8.6330E-003  
  404.50  9.0819E-003  
  405.00  8.9412E-003  
  405.50  7.9460E-003  
  406.00  6.7005E-003  
  406.50  6.0364E-003  
  407.00  6.5617E-003  
  407.50  7.9086E-003  
  408.00  8.9405E-003  
  408.50  9.0813E-003  
  409.00  7.9046E-003  
  409.50  6.5585E-003  
  410.00  5.6407E-003  
  410.50  5.3307E-003  
  411.00  5.3343E-003  
  411.50  5.3113E-003  
  412.00  5.4797E-003  
  412.50  6.3584E-003  
  413.00  7.9237E-003  
  413.50  9.6979E-003  
  414.00  1.1208E-002  
  414.50  1.2304E-002  
  415.00  1.3082E-002  
  415.50  1.3641E-002  
  416.00  1.3613E-002  
  416.50  1.2468E-002  
  417.00  1.0869E-002  
  417.50  9.1238E-003  
  418.00  7.6870E-003  
  418.50  6.7029E-003  
  419.00  6.2363E-003  
  419.50  6.5067E-003  
  420.00  7.5617E-003  
  420.50  9.1591E-003  
  421.00  1.0082E-002  
  421.50  1.0566E-002  
  422.00  1.1438E-002  
  422.50  1.2928E-002  
  423.00  1.5165E-002  
  423.50  1.7824E-002  
  424.00  1.8952E-002  
  424.50  1.8417E-002  
  425.00  1.6034E-002  
  425.50  1.2962E-002  
  426.00  1.0660E-002  
  426.50  9.2179E-003  
  427.00  8.9401E-003  
  427.50  8.9702E-003  
  428.00  9.1016E-003  
  428.50  9.2089E-003  
  429.00  9.0880E-003  
  429.50  9.5756E-003  
  430.00  1.1281E-002  
  430.50  1.4685E-002  
  431.00  1.8155E-002  
  431.50  2.0235E-002  
  432.00  1.9179E-002  
  432.50  1.6330E-002  
  433.00  1.3431E-002  
  433.50  1.2796E-002  
  434.00  1.5435E-002  
  434.50  2.2875E-002  
  435.00  3.2363E-002  
  435.50  3.8964E-002  
  436.00  3.8570E-002  
  436.50  3.2589E-002  
  437.00  2.4705E-002  
  437.50  1.8684E-002  
  438.00  1.5217E-002  
  438.50  1.3412E-002  
  439.00  1.2897E-002  
  439.50  1.3248E-002  
  440.00  1.3870E-002  
  440.50  1.3898E-002  
  441.00  1.3223E-002  
  441.50  1.2242E-002  
  442.00  1.1162E-002  
  442.50  1.0273E-002  
  443.00  9.8373E-003  
  443.50  9.5356E-003  
  444.00  9.3137E-003  
  444.50  8.7254E-003  
  445.00  7.8813E-003  
  445.50  7.6784E-003  
  446.00  7.4116E-003  
  446.50  7.5049E-003  
  447.00  7.4750E-003  
  447.50  7.5280E-003  
  448.00  8.2797E-003  
  448.50  9.0254E-003  
  449.00  9.5413E-003  
  449.50  9.5737E-003  
  450.00  8.9579E-003  
  450.50  8.2818E-003  
  451.00  7.7419E-003  
  451.50  7.7256E-003  
  452.00  7.9543E-003  
  452.50  8.1324E-003  
  453.00  8.4125E-003  
  453.50  9.0064E-003  
  454.00  9.6805E-003  
  454.50  1.0356E-002  
  455.00  1.0397E-002  
  455.50  1.0281E-002  
  456.00  1.0415E-002  
  456.50  1.0575E-002  
  457.00  1.0713E-002  
  457.50  1.0247E-002  
  458.00  9.4369E-003  
  458.50  9.1647E-003  
  459.00  9.0688E-003  
  459.50  8.9429E-003  
  460.00  8.4379E-003  
  460.50  7.5573E-003  
  461.00  7.0533E-003  
  461.50  6.1063E-003  
  462.00  5.5292E-003  
  462.50  4.8203E-003  
  463.00  4.7300E-003  
  463.50  5.0614E-003  
  464.00  5.4548E-003  
  464.50  5.8085E-003  
  465.00  6.4839E-003  
  465.50  7.7912E-003  
  466.00  9.3994E-003  
  466.50  1.0615E-002  
  467.00  1.0878E-002  
  467.50  1.0404E-002  
  468.00  9.7645E-003  
  468.50  9.2251E-003  
  469.00  9.3926E-003  
  469.50  1.0519E-002  
  470.00  1.2647E-002  
  470.50  1.5194E-002  
  471.00  1.7371E-002  
  471.50  2.0779E-002  
  472.00  2.8146E-002  
  472.50  3.9902E-002  
  473.00  5.2879E-002  
  473.50  6.0323E-002  
  474.00  5.8788E-002  
  474.50  4.7712E-002  
  475.00  3.3787E-002  
  475.50  2.2064E-002  
  476.00  1.4592E-002  
  476.50  1.1804E-002  
  477.00  1.1783E-002  
  477.50  1.2869E-002  
  478.00  1.3217E-002  
  478.50  1.2060E-002  
  479.00  1.0139E-002  
  479.50  8.1760E-003  
  480.00  7.2639E-003  
  480.50  7.1401E-003  
  481.00  7.9513E-003  
  481.50  9.4238E-003  
  482.00  1.1469E-002  
  482.50  1.3691E-002  
  483.00  1.5648E-002  
  483.50  1.6590E-002  
  484.00  1.6373E-002  
  484.50  1.4596E-002  
  485.00  1.2272E-002  
  485.50  1.0095E-002  
  486.00  8.7292E-003  
  486.50  8.4796E-003  
  487.00  8.8076E-003  
  487.50  9.1559E-003  
  488.00  8.9617E-003  
  488.50  8.4082E-003  
  489.00  7.9530E-003  
  489.50  7.8450E-003  
  490.00  8.1595E-003  
  490.50  8.6522E-003  
  491.00  9.0279E-003  
  491.50  9.1939E-003  
  492.00  9.2202E-003  
  492.50  9.1980E-003  
  493.00  9.4385E-003  
  493.50  9.8413E-003  
  494.00  1.0399E-002  
  494.50  1.0751E-002  
  495.00  1.0493E-002  
  495.50  9.8272E-003  
  496.00  9.5318E-003  
  496.50  1.1122E-002  
  497.00  1.4510E-002  
  497.50  1.8554E-002  
  498.00  2.1071E-002  
  498.50  2.0222E-002  
  499.00  1.7174E-002  
  499.50  1.3139E-002  
  500.00  1.0093E-002  
  500.50  9.2105E-003  
  501.00  1.0358E-002  
  501.50  1.2426E-002  
  502.00  1.4023E-002  
  502.50  1.4207E-002  
  503.00  1.3059E-002  
  503.50  1.1464E-002  
  504.00  1.0030E-002  
  504.50  9.7178E-003  
  505.00  1.1950E-002  
  505.50  1.7627E-002  
  506.00  2.6850E-002  
  506.50  3.9230E-002  
  507.00  5.6696E-002  
  507.50  7.6767E-002  
  508.00  9.1494E-002  
  508.50  9.4002E-002  
  509.00  8.1054E-002  
  509.50  6.2150E-002  
  510.00  4.5217E-002  
  510.50  3.3028E-002  
  511.00  2.4717E-002  
  511.50  1.8445E-002  
  512.00  1.3698E-002  
  512.50  9.7678E-003  
  513.00  7.2958E-003  
  513.50  6.3336E-003  
  514.00  6.5383E-003  
  514.50  7.4503E-003  
  515.00  8.1045E-003  
  515.50  7.9522E-003  
  516.00  6.9931E-003  
  516.50  5.7932E-003  
  517.00  5.0242E-003  
  517.50  4.7251E-003  
  518.00  4.7763E-003  
  518.50  5.1259E-003  
  519.00  5.8644E-003  
  519.50  7.5696E-003  
  520.00  1.0057E-002  
  520.50  1.2841E-002  
  521.00  1.4706E-002  
  521.50  1.4464E-002  
  522.00  1.2731E-002  
  522.50  1.0226E-002  
  523.00  8.2628E-003  
  523.50  7.0338E-003  
  524.00  6.5264E-003  
  524.50  7.0931E-003  
  525.00  8.2712E-003  
  525.50  9.2741E-003  
  526.00  8.9642E-003  
  526.50  7.5651E-003  
  527.00  6.5074E-003  
  527.50  6.9455E-003  
  528.00  8.1326E-003  
  528.50  8.8696E-003  
  529.00  8.7160E-003  
  529.50  7.9891E-003  
  530.00  7.4355E-003  
  530.50  7.2555E-003  
  531.00  7.2138E-003  
  531.50  7.3535E-003  
  532.00  8.2057E-003  
  532.50  1.0378E-002  
  533.00  1.4854E-002  
  533.50  2.2136E-002  
  534.00  3.1028E-002  
  534.50  3.8362E-002  
  535.00  4.0061E-002  
  535.50  3.4664E-002  
  536.00  2.6189E-002  
  536.50  1.9391E-002  
  537.00  1.6470E-002  
  537.50  1.6347E-002  
  538.00  1.7332E-002  
  538.50  1.8500E-002  
  539.00  1.8487E-002  
  539.50  1.6428E-002  
  540.00  1.2858E-002  
  540.50  1.0091E-002  
  541.00  9.2301E-003  
  541.50  9.8304E-003  
  542.00  1.1113E-002  
  542.50  1.3082E-002  
  543.00  1.5995E-002  
  543.50  2.0077E-002  
  544.00  2.6565E-002  
  544.50  3.7875E-002  
  545.00  5.5675E-002  
  545.50  7.2816E-002  
  546.00  7.7233E-002  
  546.50  6.9163E-002  
  547.00  5.6234E-002  
  547.50  4.8127E-002  
  548.00  4.4441E-002  
  548.50  3.7873E-002  
  549.00  2.7375E-002  
  549.50  1.8284E-002  
  550.00  1.6233E-002  
  550.50  2.1787E-002  
  551.00  3.1390E-002  
  551.50  3.8218E-002  
  552.00  3.7809E-002  
  552.50  3.0553E-002  
  553.00  2.1702E-002  
  553.50  1.5726E-002  
  554.00  1.3034E-002  
  554.50  1.2357E-002  
  555.00  1.2074E-002  
  555.50  1.1888E-002  
  556.00  1.1666E-002  
  556.50  1.1261E-002  
  557.00  1.0738E-002  
  557.50  1.0743E-002  
  558.00  1.1611E-002  
  558.50  1.2749E-002  
  559.00  1.2825E-002  
  559.50  1.1492E-002  
  560.00  9.6590E-003  
  560.50  8.5034E-003  
  561.00  7.9829E-003  
  561.50  7.6954E-003  
  562.00  7.2898E-003  
  562.50  7.1254E-003  
  563.00  7.4243E-003  
  563.50  8.3977E-003  
  564.00  9.8905E-003  
  564.50  1.1288E-002  
  565.00  1.3270E-002  
  565.50  1.7981E-002  
  566.00  2.7488E-002  
  566.50  4.0694E-002  
  567.00  5.4429E-002  
  567.50  6.7444E-002  
  568.00  7.8515E-002  
  568.50  8.3593E-002  
  569.00  8.1610E-002  
  569.50  7.4809E-002  
  570.00  6.9420E-002  
  570.50  6.7414E-002  
  571.00  6.4245E-002  
  571.50  5.6298E-002  
  572.00  4.3648E-002  
  572.50  2.9750E-002  
  573.00  1.8998E-002  
  573.50  1.2334E-002  
  574.00  9.9063E-003  
  574.50  1.0232E-002  
  575.00  1.3708E-002  
  575.50  2.0926E-002  
  576.00  3.0217E-002  
  576.50  3.6666E-002  
  577.00  3.7570E-002  
  577.50  3.4976E-002  
  578.00  3.4132E-002  
  578.50  3.5895E-002  
  579.00  3.5593E-002  
  579.50  2.9991E-002  
  580.00  2.1590E-002  
  580.50  1.4192E-002  
  581.00  9.9025E-003  
  581.50  7.7199E-003  
  582.00  6.8130E-003  
  582.50  6.4892E-003  
  583.00  6.3876E-003  
  583.50  6.5583E-003  
  584.00  6.9369E-003  
  584.50  7.4778E-003  
  585.00  8.3719E-003  
  585.50  9.8046E-003  
  586.00  1.2773E-002  
  586.50  2.1119E-002  
  587.00  3.9276E-002  
  587.50  7.0007E-002  
  588.00  1.0537E-001  
  588.50  1.3741E-001  
  589.00  1.6291E-001  
  589.50  1.8468E-001  
  590.00  1.9960E-001  
  590.50  1.9967E-001  
  591.00  1.8288E-001  
  591.50  1.5669E-001  
  592.00  1.3054E-001  
  592.50  1.1019E-001  
  593.00  9.4673E-002  
  593.50  8.3185E-002  
  594.00  7.4095E-002  
  594.50  6.6523E-002  
  595.00  6.0611E-002  
  595.50  5.6155E-002  
  596.00  5.3288E-002  
  596.50  5.1029E-002  
  597.00  4.8391E-002  
  597.50  4.5164E-002  
  598.00  4.2336E-002  
  598.50  4.0201E-002  
  599.00  3.8111E-002  
  599.50  3.5476E-002  
  600.00  3.2355E-002  
  600.50  2.9675E-002  
  601.00  2.7849E-002  
  601.50  2.7061E-002  
  602.00  2.6791E-002  
  602.50  2.6414E-002  
  603.00  2.5276E-002  
  603.50  2.3570E-002  
  604.00  2.1802E-002  
  604.50  2.0414E-002  
  605.00  1.9318E-002  
  605.50  1.8386E-002  
  606.00  1.7485E-002  
  606.50  1.6785E-002  
  607.00  1.6320E-002  
  607.50  1.5784E-002  
  608.00  1.5104E-002  
  608.50  1.4487E-002  
  609.00  1.4567E-002  
  609.50  1.5144E-002  
  610.00  1.5628E-002  
  610.50  1.5201E-002  
  611.00  1.4293E-002  
  611.50  1.3405E-002  
  612.00  1.2930E-002  
  612.50  1.2598E-002  
  613.00  1.2364E-002  
  613.50  1.2720E-002  
  614.00  1.4275E-002  
  614.50  1.6471E-002  
  615.00  1.8857E-002  
  615.50  2.0054E-002  
  616.00  1.9712E-002  
  616.50  1.7781E-002  
  617.00  1.5643E-002  
  617.50  1.4517E-002  
  618.00  1.5028E-002  
  618.50  1.6289E-002  
  619.00  1.8047E-002  
  619.50  2.1106E-002  
  620.00  2.5962E-002  
  620.50  3.0583E-002  
  621.00  3.0780E-002  
  621.50  2.5996E-002  
  622.00  1.9967E-002  
  622.50  1.8922E-002  
  623.00  2.4293E-002  
  623.50  3.1840E-002  
  624.00  3.5934E-002  
  624.50  3.5399E-002  
  625.00  3.3465E-002  
  625.50  3.1950E-002  
  626.00  2.9343E-002  
  626.50  2.5581E-002  
  627.00  2.1931E-002  
  627.50  2.0095E-002  
  628.00  1.8518E-002  
  628.50  1.7149E-002  
  629.00  1.8473E-002  
  629.50  2.4465E-002  
  630.00  3.2968E-002  
  630.50  3.6534E-002  
  631.00  3.1930E-002  
  631.50  2.2401E-002  
  632.00  1.4464E-002  
  632.50  1.0584E-002  
  633.00  9.5333E-003  
  633.50  9.7655E-003  
  634.00  1.0133E-002  
  634.50  1.0042E-002  
  635.00  8.9375E-003  
  635.50  7.7002E-003  
  636.00  7.2321E-003  
  636.50  8.5972E-003  
  637.00  1.1553E-002  
  637.50  1.4101E-002  
  638.00  1.4093E-002  
  638.50  1.1611E-002  
  639.00  8.5674E-003  
  639.50  7.4478E-003  
  640.00  9.1401E-003  
  640.50  1.2815E-002  
  641.00  1.5743E-002  
  641.50  1.5686E-002  
  642.00  1.2439E-002  
  642.50  8.9802E-003  
  643.00  7.0090E-003  
  643.50  6.8940E-003  
  644.00  7.3765E-003  
  644.50  8.2875E-003  
  645.00  9.5084E-003  
  645.50  1.0202E-002  
  646.00  9.8240E-003  
  646.50  8.4168E-003  
  647.00  7.4273E-003  
  647.50  6.8125E-003  
  648.00  6.6924E-003  
  648.50  6.3908E-003  
  649.00  6.0063E-003  
  649.50  5.6990E-003  
  650.00  5.3113E-003  
  650.50  5.1602E-003  
  651.00  5.0947E-003  
  651.50  5.5967E-003  
  652.00  6.4405E-003  
  652.50  7.1018E-003  
  653.00  7.3379E-003  
  653.50  6.6734E-003  
  654.00  5.7504E-003  
  654.50  5.2670E-003  
  655.00  5.4293E-003  
  655.50  5.8956E-003  
  656.00  5.6799E-003  
  656.50  5.4695E-003  
  657.00  5.8974E-003  
  657.50  7.3271E-003  
  658.00  9.3204E-003  
  658.50  1.0709E-002  
  659.00  1.0849E-002  
  659.50  9.4868E-003  
  660.00  7.7852E-003  
  660.50  6.3267E-003  
  661.00  5.4664E-003  
  661.50  5.0261E-003  
  662.00  4.5474E-003  
  662.50  4.4876E-003  
  663.00  4.3946E-003  
  663.50  4.5256E-003  
  664.00  4.3624E-003  
  664.50  4.3603E-003  
  665.00  4.7406E-003  
  665.50  5.3797E-003  
  666.00  5.6894E-003  
  666.50  5.6715E-003  
  667.00  5.3155E-003  
  667.50  4.9904E-003  
  668.00  4.4614E-003  
  668.50  4.3603E-003  
  669.00  6.8560E-003  
  669.50  1.3538E-002  
  670.00  2.4198E-002  
  670.50  3.2733E-002  
  671.00  3.3184E-002  
  671.50  2.5525E-002  
  672.00  1.5792E-002  
  672.50  1.0279E-002  
  673.00  9.1906E-003  
  673.50  9.6804E-003  
  674.00  9.4743E-003  
  674.50  8.0264E-003  
  675.00  6.6038E-003  
  675.50  5.6009E-003  
  676.00  5.1988E-003  
  676.50  4.9079E-003  
  677.00  4.6404E-003  
  677.50  4.5434E-003  
  678.00  4.7252E-003  
  678.50  5.0491E-003  
  679.00  5.3112E-003  
  679.50  5.3863E-003  
  680.00  5.3382E-003  
