
# From lspdd.org
# 
# Name: DEL DALS Wall-001 Domestique
# Indice spectral Valeur 
# MSI 0.32 
# SLI 0.53 
# IPI 0.63 
# Pourcentage de bleu 22.2 
# Caractéristique Valeur 
# CCT calculée (K) 3017 
# CCT du fabricant (K) 3000 
# Tension (V) 120 
# Puissance (W) 7.5 
# Efficacité lumineuse (Lum/W) 80.0 
#
# Image: '/app/system/img_1s/2646/medium_image1.jpg?1432222994'
# 

  273.00  0.0000E+000  
  273.50  0.0000E+000  
  274.00  0.0000E+000  
  274.50  0.0000E+000  
  275.00  0.0000E+000  
  275.50  0.0000E+000  
  276.00  0.0000E+000  
  276.50  0.0000E+000  
  277.00  0.0000E+000  
  277.50  0.0000E+000  
  278.00  0.0000E+000  
  278.50  0.0000E+000  
  279.00  0.0000E+000  
  279.50  0.0000E+000  
  280.00  0.0000E+000  
  280.50  0.0000E+000  
  281.00  0.0000E+000  
  281.50  0.0000E+000  
  282.00  0.0000E+000  
  282.50  0.0000E+000  
  283.00  0.0000E+000  
  283.50  0.0000E+000  
  284.00  0.0000E+000  
  284.50  0.0000E+000  
  285.00  0.0000E+000  
  285.50  0.0000E+000  
  286.00  0.0000E+000  
  286.50  0.0000E+000  
  287.00  0.0000E+000  
  287.50  0.0000E+000  
  288.00  0.0000E+000  
  288.50  0.0000E+000  
  289.00  0.0000E+000  
  289.50  0.0000E+000  
  290.00  0.0000E+000  
  290.50  0.0000E+000  
  291.00  0.0000E+000  
  291.50  0.0000E+000  
  292.00  0.0000E+000  
  292.50  0.0000E+000  
  293.00  0.0000E+000  
  293.50  0.0000E+000  
  294.00  0.0000E+000  
  294.50  0.0000E+000  
  295.00  0.0000E+000  
  295.50  0.0000E+000  
  296.00  0.0000E+000  
  296.50  0.0000E+000  
  297.00  0.0000E+000  
  297.50  0.0000E+000  
  298.00  0.0000E+000  
  298.50  0.0000E+000  
  299.00  0.0000E+000  
  299.50  0.0000E+000  
  300.00  0.0000E+000  
  300.50  0.0000E+000  
  301.00  0.0000E+000  
  301.50  0.0000E+000  
  302.00  0.0000E+000  
  302.50  0.0000E+000  
  303.00  0.0000E+000  
  303.50  5.4714E-005  
  304.00  2.9550E-004  
  304.50  4.9657E-004  
  305.00  5.5896E-004  
  305.50  3.5289E-004  
  306.00  0.0000E+000  
  306.50  0.0000E+000  
  307.00  0.0000E+000  
  307.50  1.1432E-005  
  308.00  5.1293E-004  
  308.50  8.0454E-004  
  309.00  1.2739E-003  
  309.50  1.7036E-003  
  310.00  1.6479E-003  
  310.50  1.5842E-003  
  311.00  7.1571E-004  
  311.50  1.5319E-004  
  312.00  1.8410E-004  
  312.50  3.1831E-004  
  313.00  9.3040E-004  
  313.50  1.2833E-003  
  314.00  1.2394E-003  
  314.50  1.1691E-003  
  315.00  9.3011E-004  
  315.50  7.8801E-004  
  316.00  6.1280E-004  
  316.50  7.1520E-004  
  317.00  6.3028E-004  
  317.50  4.9663E-004  
  318.00  3.6030E-004  
  318.50  1.4591E-004  
  319.00  4.4676E-004  
  319.50  6.8714E-004  
  320.00  8.4494E-004  
  320.50  8.8257E-004  
  321.00  6.6558E-004  
  321.50  4.9052E-004  
  322.00  1.2189E-004  
  322.50  0.0000E+000  
  323.00  0.0000E+000  
  323.50  0.0000E+000  
  324.00  1.7096E-004  
  324.50  3.8854E-004  
  325.00  6.7986E-004  
  325.50  6.0082E-004  
  326.00  3.2331E-004  
  326.50  2.5690E-004  
  327.00  3.1862E-004  
  327.50  6.8413E-004  
  328.00  1.0942E-003  
  328.50  1.0708E-003  
  329.00  1.0652E-003  
  329.50  1.1388E-003  
  330.00  1.1365E-003  
  330.50  9.2662E-004  
  331.00  5.6274E-004  
  331.50  1.9975E-004  
  332.00  1.5696E-004  
  332.50  4.6467E-004  
  333.00  6.7109E-004  
  333.50  5.3038E-004  
  334.00  2.6062E-004  
  334.50  1.2106E-004  
  335.00  4.4185E-004  
  335.50  1.0334E-003  
  336.00  1.4619E-003  
  336.50  1.2757E-003  
  337.00  9.2297E-004  
  337.50  5.0542E-004  
  338.00  1.2324E-004  
  338.50  0.0000E+000  
  339.00  0.0000E+000  
  339.50  6.6817E-007  
  340.00  2.0602E-004  
  340.50  5.0597E-004  
  341.00  5.7571E-004  
  341.50  5.4386E-004  
  342.00  4.6718E-004  
  342.50  3.8856E-004  
  343.00  1.0497E-004  
  343.50  0.0000E+000  
  344.00  0.0000E+000  
  344.50  2.5580E-004  
  345.00  6.3600E-004  
  345.50  7.6809E-004  
  346.00  5.5240E-004  
  346.50  5.1740E-004  
  347.00  5.8863E-004  
  347.50  8.2499E-004  
  348.00  9.7947E-004  
  348.50  7.4858E-004  
  349.00  8.2816E-004  
  349.50  7.1385E-004  
  350.00  3.5457E-004  
  350.50  5.9902E-005  
  351.00  0.0000E+000  
  351.50  0.0000E+000  
  352.00  5.2331E-005  
  352.50  1.9889E-004  
  353.00  5.0353E-004  
  353.50  6.5893E-004  
  354.00  6.1310E-004  
  354.50  4.9986E-004  
  355.00  2.5891E-004  
  355.50  2.7211E-004  
  356.00  6.1173E-004  
  356.50  1.0268E-003  
  357.00  1.4422E-003  
  357.50  1.3847E-003  
  358.00  1.0394E-003  
  358.50  4.4283E-004  
  359.00  3.3282E-004  
  359.50  4.7320E-004  
  360.00  7.9919E-004  
  360.50  7.6871E-004  
  361.00  5.8520E-004  
  361.50  3.4932E-004  
  362.00  1.0245E-004  
  362.50  1.5892E-004  
  363.00  0.0000E+000  
  363.50  0.0000E+000  
  364.00  0.0000E+000  
  364.50  1.1444E-004  
  365.00  3.6189E-004  
  365.50  5.5436E-004  
  366.00  4.6129E-004  
  366.50  4.5441E-004  
  367.00  5.7560E-004  
  367.50  5.3602E-004  
  368.00  6.2265E-004  
  368.50  7.5779E-004  
  369.00  7.1077E-004  
  369.50  6.8045E-004  
  370.00  3.1952E-004  
  370.50  8.7000E-005  
  371.00  7.4579E-005  
  371.50  1.5429E-005  
  372.00  0.0000E+000  
  372.50  0.0000E+000  
  373.00  0.0000E+000  
  373.50  0.0000E+000  
  374.00  0.0000E+000  
  374.50  0.0000E+000  
  375.00  3.5482E-004  
  375.50  7.6391E-004  
  376.00  7.3493E-004  
  376.50  7.5974E-004  
  377.00  5.3503E-004  
  377.50  3.3968E-004  
  378.00  4.0413E-004  
  378.50  6.6344E-004  
  379.00  8.6269E-004  
  379.50  8.0339E-004  
  380.00  5.7915E-004  
  380.50  3.8165E-004  
  381.00  5.6602E-004  
  381.50  7.6678E-004  
  382.00  9.3273E-004  
  382.50  8.5394E-004  
  383.00  6.7986E-004  
  383.50  7.9961E-004  
  384.00  9.0102E-004  
  384.50  1.0206E-003  
  385.00  8.6397E-004  
  385.50  6.1753E-004  
  386.00  5.3555E-004  
  386.50  3.9093E-004  
  387.00  3.1024E-004  
  387.50  2.7849E-004  
  388.00  3.7535E-005  
  388.50  3.4128E-005  
  389.00  3.3844E-005  
  389.50  1.5481E-004  
  390.00  6.0211E-004  
  390.50  9.1855E-004  
  391.00  8.5334E-004  
  391.50  4.8263E-004  
  392.00  3.0256E-004  
  392.50  5.6623E-004  
  393.00  9.5979E-004  
  393.50  9.2236E-004  
  394.00  5.3782E-004  
  394.50  0.0000E+000  
  395.00  0.0000E+000  
  395.50  0.0000E+000  
  396.00  2.2747E-005  
  396.50  2.4618E-004  
  397.00  3.8284E-004  
  397.50  2.8087E-004  
  398.00  6.3835E-005  
  398.50  0.0000E+000  
  399.00  0.0000E+000  
  399.50  1.1787E-004  
  400.00  5.4849E-004  
  400.50  6.8547E-004  
  401.00  7.1024E-004  
  401.50  6.8666E-004  
  402.00  7.4593E-004  
  402.50  9.0267E-004  
  403.00  8.6080E-004  
  403.50  9.6361E-004  
  404.00  1.0141E-003  
  404.50  1.0830E-003  
  405.00  1.2192E-003  
  405.50  1.1592E-003  
  406.00  1.1501E-003  
  406.50  9.9150E-004  
  407.00  8.2570E-004  
  407.50  9.1689E-004  
  408.00  9.9571E-004  
  408.50  1.1246E-003  
  409.00  1.2753E-003  
  409.50  1.3598E-003  
  410.00  1.6604E-003  
  410.50  1.7259E-003  
  411.00  1.8305E-003  
  411.50  1.6448E-003  
  412.00  1.3832E-003  
  412.50  1.3253E-003  
  413.00  1.3331E-003  
  413.50  1.6881E-003  
  414.00  2.0305E-003  
  414.50  2.0458E-003  
  415.00  2.0699E-003  
  415.50  1.8820E-003  
  416.00  1.9027E-003  
  416.50  1.8187E-003  
  417.00  1.8241E-003  
  417.50  1.8597E-003  
  418.00  1.9835E-003  
  418.50  2.0606E-003  
  419.00  2.1193E-003  
  419.50  2.5118E-003  
  420.00  2.9804E-003  
  420.50  3.3585E-003  
  421.00  3.4470E-003  
  421.50  3.4506E-003  
  422.00  3.5326E-003  
  422.50  3.8877E-003  
  423.00  4.0218E-003  
  423.50  4.5591E-003  
  424.00  4.8818E-003  
  424.50  5.3638E-003  
  425.00  5.9747E-003  
  425.50  6.6662E-003  
  426.00  7.3110E-003  
  426.50  7.7973E-003  
  427.00  7.9643E-003  
  427.50  8.2178E-003  
  428.00  8.7609E-003  
  428.50  9.6732E-003  
  429.00  1.0408E-002  
  429.50  1.1032E-002  
  430.00  1.1762E-002  
  430.50  1.2935E-002  
  431.00  1.4163E-002  
  431.50  1.5236E-002  
  432.00  1.5958E-002  
  432.50  1.6849E-002  
  433.00  1.8079E-002  
  433.50  1.9468E-002  
  434.00  2.0733E-002  
  434.50  2.1536E-002  
  435.00  2.2621E-002  
  435.50  2.4072E-002  
  436.00  2.5740E-002  
  436.50  2.7524E-002  
  437.00  2.8838E-002  
  437.50  3.0470E-002  
  438.00  3.2169E-002  
  438.50  3.4102E-002  
  439.00  3.6174E-002  
  439.50  3.8493E-002  
  440.00  4.1362E-002  
  440.50  4.4414E-002  
  441.00  4.7208E-002  
  441.50  5.0168E-002  
  442.00  5.3091E-002  
  442.50  5.6407E-002  
  443.00  5.9814E-002  
  443.50  6.3391E-002  
  444.00  6.7204E-002  
  444.50  7.1330E-002  
  445.00  7.5363E-002  
  445.50  7.9470E-002  
  446.00  8.3202E-002  
  446.50  8.6633E-002  
  447.00  9.0372E-002  
  447.50  9.3589E-002  
  448.00  9.7154E-002  
  448.50  9.9879E-002  
  449.00  1.0210E-001  
  449.50  1.0388E-001  
  450.00  1.0479E-001  
  450.50  1.0552E-001  
  451.00  1.0575E-001  
  451.50  1.0535E-001  
  452.00  1.0454E-001  
  452.50  1.0309E-001  
  453.00  1.0153E-001  
  453.50  9.9747E-002  
  454.00  9.6864E-002  
  454.50  9.3728E-002  
  455.00  9.0054E-002  
  455.50  8.6466E-002  
  456.00  8.3189E-002  
  456.50  7.9982E-002  
  457.00  7.7148E-002  
  457.50  7.4645E-002  
  458.00  7.1701E-002  
  458.50  6.9136E-002  
  459.00  6.6148E-002  
  459.50  6.3203E-002  
  460.00  6.0633E-002  
  460.50  5.8397E-002  
  461.00  5.7019E-002  
  461.50  5.5413E-002  
  462.00  5.3852E-002  
  462.50  5.2167E-002  
  463.00  5.0754E-002  
  463.50  4.9600E-002  
  464.00  4.8682E-002  
  464.50  4.7632E-002  
  465.00  4.6545E-002  
  465.50  4.5450E-002  
  466.00  4.4428E-002  
  466.50  4.3651E-002  
  467.00  4.2588E-002  
  467.50  4.1747E-002  
  468.00  4.0942E-002  
  468.50  4.0161E-002  
  469.00  3.9335E-002  
  469.50  3.8453E-002  
  470.00  3.7549E-002  
  470.50  3.6950E-002  
  471.00  3.5918E-002  
  471.50  3.4747E-002  
  472.00  3.3356E-002  
  472.50  3.2321E-002  
  473.00  3.1307E-002  
  473.50  3.0767E-002  
  474.00  3.0131E-002  
  474.50  2.9639E-002  
  475.00  2.9221E-002  
  475.50  2.8688E-002  
  476.00  2.8154E-002  
  476.50  2.7587E-002  
  477.00  2.7325E-002  
  477.50  2.7382E-002  
  478.00  2.7472E-002  
  478.50  2.7451E-002  
  479.00  2.7438E-002  
  479.50  2.7240E-002  
  480.00  2.7302E-002  
  480.50  2.7372E-002  
  481.00  2.7392E-002  
  481.50  2.7471E-002  
  482.00  2.7425E-002  
  482.50  2.7282E-002  
  483.00  2.7388E-002  
  483.50  2.7583E-002  
  484.00  2.8258E-002  
  484.50  2.9104E-002  
  485.00  2.9714E-002  
  485.50  3.0156E-002  
  486.00  3.0264E-002  
  486.50  3.0422E-002  
  487.00  3.0593E-002  
  487.50  3.0792E-002  
  488.00  3.1214E-002  
  488.50  3.1792E-002  
  489.00  3.2531E-002  
  489.50  3.3109E-002  
  490.00  3.3575E-002  
  490.50  3.4274E-002  
  491.00  3.5295E-002  
  491.50  3.6258E-002  
  492.00  3.7052E-002  
  492.50  3.7618E-002  
  493.00  3.8313E-002  
  493.50  3.9298E-002  
  494.00  4.0443E-002  
  494.50  4.1711E-002  
  495.00  4.2648E-002  
  495.50  4.3396E-002  
  496.00  4.4207E-002  
  496.50  4.5299E-002  
  497.00  4.6511E-002  
  497.50  4.7915E-002  
  498.00  4.8995E-002  
  498.50  5.0242E-002  
  499.00  5.1240E-002  
  499.50  5.2261E-002  
  500.00  5.3252E-002  
  500.50  5.4490E-002  
  501.00  5.5568E-002  
  501.50  5.6725E-002  
  502.00  5.7902E-002  
  502.50  5.9121E-002  
  503.00  6.0537E-002  
  503.50  6.1774E-002  
  504.00  6.2949E-002  
  504.50  6.3936E-002  
  505.00  6.5025E-002  
  505.50  6.6213E-002  
  506.00  6.7235E-002  
  506.50  6.8369E-002  
  507.00  6.9261E-002  
  507.50  7.0242E-002  
  508.00  7.1290E-002  
  508.50  7.2230E-002  
  509.00  7.3234E-002  
  509.50  7.4352E-002  
  510.00  7.5403E-002  
  510.50  7.6600E-002  
  511.00  7.7888E-002  
  511.50  7.9040E-002  
  512.00  8.0038E-002  
  512.50  8.1051E-002  
  513.00  8.2022E-002  
  513.50  8.3025E-002  
  514.00  8.3843E-002  
  514.50  8.4605E-002  
  515.00  8.5633E-002  
  515.50  8.6539E-002  
  516.00  8.7339E-002  
  516.50  8.7878E-002  
  517.00  8.8476E-002  
  517.50  8.9323E-002  
  518.00  9.0304E-002  
  518.50  9.1236E-002  
  519.00  9.1947E-002  
  519.50  9.2521E-002  
  520.00  9.2883E-002  
  520.50  9.3200E-002  
  521.00  9.3816E-002  
  521.50  9.4640E-002  
  522.00  9.5463E-002  
  522.50  9.5766E-002  
  523.00  9.5871E-002  
  523.50  9.6283E-002  
  524.00  9.6750E-002  
  524.50  9.7480E-002  
  525.00  9.7890E-002  
  525.50  9.8664E-002  
  526.00  9.9503E-002  
  526.50  1.0012E-001  
  527.00  1.0042E-001  
  527.50  1.0064E-001  
  528.00  1.0119E-001  
  528.50  1.0194E-001  
  529.00  1.0244E-001  
  529.50  1.0255E-001  
  530.00  1.0244E-001  
  530.50  1.0271E-001  
  531.00  1.0290E-001  
  531.50  1.0321E-001  
  532.00  1.0357E-001  
  532.50  1.0398E-001  
  533.00  1.0438E-001  
  533.50  1.0467E-001  
  534.00  1.0476E-001  
  534.50  1.0484E-001  
  535.00  1.0503E-001  
  535.50  1.0546E-001  
  536.00  1.0605E-001  
  536.50  1.0650E-001  
  537.00  1.0689E-001  
  537.50  1.0698E-001  
  538.00  1.0734E-001  
  538.50  1.0769E-001  
  539.00  1.0803E-001  
  539.50  1.0845E-001  
  540.00  1.0860E-001  
  540.50  1.0911E-001  
  541.00  1.0935E-001  
  541.50  1.0952E-001  
  542.00  1.0952E-001  
  542.50  1.0965E-001  
  543.00  1.0991E-001  
  543.50  1.1017E-001  
  544.00  1.1059E-001  
  544.50  1.1075E-001  
  545.00  1.1102E-001  
  545.50  1.1128E-001  
  546.00  1.1159E-001  
  546.50  1.1218E-001  
  547.00  1.1251E-001  
  547.50  1.1299E-001  
  548.00  1.1353E-001  
  548.50  1.1410E-001  
  549.00  1.1466E-001  
  549.50  1.1493E-001  
  550.00  1.1521E-001  
  550.50  1.1556E-001  
  551.00  1.1583E-001  
  551.50  1.1590E-001  
  552.00  1.1609E-001  
  552.50  1.1670E-001  
  553.00  1.1759E-001  
  553.50  1.1816E-001  
  554.00  1.1873E-001  
  554.50  1.1923E-001  
  555.00  1.1969E-001  
  555.50  1.1987E-001  
  556.00  1.2017E-001  
  556.50  1.2087E-001  
  557.00  1.2168E-001  
  557.50  1.2234E-001  
  558.00  1.2310E-001  
  558.50  1.2401E-001  
  559.00  1.2495E-001  
  559.50  1.2544E-001  
  560.00  1.2589E-001  
  560.50  1.2661E-001  
  561.00  1.2765E-001  
  561.50  1.2884E-001  
  562.00  1.2975E-001  
  562.50  1.3057E-001  
  563.00  1.3107E-001  
  563.50  1.3143E-001  
  564.00  1.3198E-001  
  564.50  1.3267E-001  
  565.00  1.3345E-001  
  565.50  1.3441E-001  
  566.00  1.3528E-001  
  566.50  1.3638E-001  
  567.00  1.3704E-001  
  567.50  1.3778E-001  
  568.00  1.3854E-001  
  568.50  1.3942E-001  
  569.00  1.4038E-001  
  569.50  1.4142E-001  
  570.00  1.4281E-001  
  570.50  1.4406E-001  
  571.00  1.4506E-001  
  571.50  1.4573E-001  
  572.00  1.4654E-001  
  572.50  1.4757E-001  
  573.00  1.4865E-001  
  573.50  1.4955E-001  
  574.00  1.5086E-001  
  574.50  1.5224E-001  
  575.00  1.5349E-001  
  575.50  1.5463E-001  
  576.00  1.5552E-001  
  576.50  1.5667E-001  
  577.00  1.5782E-001  
  577.50  1.5852E-001  
  578.00  1.5949E-001  
  578.50  1.6024E-001  
  579.00  1.6115E-001  
  579.50  1.6240E-001  
  580.00  1.6376E-001  
  580.50  1.6512E-001  
  581.00  1.6589E-001  
  581.50  1.6683E-001  
  582.00  1.6778E-001  
  582.50  1.6918E-001  
  583.00  1.6995E-001  
  583.50  1.7094E-001  
  584.00  1.7174E-001  
  584.50  1.7288E-001  
  585.00  1.7394E-001  
  585.50  1.7500E-001  
  586.00  1.7576E-001  
  586.50  1.7622E-001  
  587.00  1.7683E-001  
  587.50  1.7776E-001  
  588.00  1.7886E-001  
  588.50  1.8000E-001  
  589.00  1.8079E-001  
  589.50  1.8191E-001  
  590.00  1.8265E-001  
  590.50  1.8350E-001  
  591.00  1.8406E-001  
  591.50  1.8505E-001  
  592.00  1.8561E-001  
  592.50  1.8623E-001  
  593.00  1.8680E-001  
  593.50  1.8714E-001  
  594.00  1.8773E-001  
  594.50  1.8809E-001  
  595.00  1.8842E-001  
  595.50  1.8866E-001  
  596.00  1.8921E-001  
  596.50  1.9008E-001  
  597.00  1.9060E-001  
  597.50  1.9075E-001  
  598.00  1.9110E-001  
  598.50  1.9168E-001  
  599.00  1.9200E-001  
  599.50  1.9175E-001  
  600.00  1.9164E-001  
  600.50  1.9196E-001  
  601.00  1.9211E-001  
  601.50  1.9223E-001  
  602.00  1.9238E-001  
  602.50  1.9264E-001  
  603.00  1.9275E-001  
  603.50  1.9225E-001  
  604.00  1.9203E-001  
  604.50  1.9178E-001  
  605.00  1.9142E-001  
  605.50  1.9104E-001  
  606.00  1.9094E-001  
  606.50  1.9097E-001  
  607.00  1.9049E-001  
  607.50  1.8967E-001  
  608.00  1.8904E-001  
  608.50  1.8883E-001  
  609.00  1.8914E-001  
  609.50  1.8939E-001  
  610.00  1.8931E-001  
  610.50  1.8851E-001  
  611.00  1.8769E-001  
  611.50  1.8711E-001  
  612.00  1.8675E-001  
  612.50  1.8618E-001  
  613.00  1.8533E-001  
  613.50  1.8451E-001  
  614.00  1.8374E-001  
  614.50  1.8314E-001  
  615.00  1.8258E-001  
  615.50  1.8208E-001  
  616.00  1.8162E-001  
  616.50  1.8051E-001  
  617.00  1.7925E-001  
  617.50  1.7826E-001  
  618.00  1.7759E-001  
  618.50  1.7685E-001  
  619.00  1.7580E-001  
  619.50  1.7491E-001  
  620.00  1.7391E-001  
  620.50  1.7297E-001  
  621.00  1.7148E-001  
  621.50  1.7024E-001  
  622.00  1.6900E-001  
  622.50  1.6837E-001  
  623.00  1.6787E-001  
  623.50  1.6674E-001  
  624.00  1.6521E-001  
  624.50  1.6365E-001  
  625.00  1.6233E-001  
  625.50  1.6135E-001  
  626.00  1.6003E-001  
  626.50  1.5918E-001  
  627.00  1.5845E-001  
  627.50  1.5767E-001  
  628.00  1.5659E-001  
  628.50  1.5527E-001  
  629.00  1.5408E-001  
  629.50  1.5277E-001  
  630.00  1.5136E-001  
  630.50  1.5000E-001  
  631.00  1.4860E-001  
  631.50  1.4737E-001  
  632.00  1.4584E-001  
  632.50  1.4462E-001  
  633.00  1.4338E-001  
  633.50  1.4231E-001  
  634.00  1.4102E-001  
  634.50  1.3996E-001  
  635.00  1.3893E-001  
  635.50  1.3759E-001  
  636.00  1.3583E-001  
  636.50  1.3404E-001  
  637.00  1.3266E-001  
  637.50  1.3150E-001  
  638.00  1.3022E-001  
  638.50  1.2842E-001  
  639.00  1.2689E-001  
  639.50  1.2551E-001  
  640.00  1.2444E-001  
  640.50  1.2339E-001  
  641.00  1.2228E-001  
  641.50  1.2146E-001  
  642.00  1.1993E-001  
  642.50  1.1854E-001  
  643.00  1.1719E-001  
  643.50  1.1612E-001  
  644.00  1.1481E-001  
  644.50  1.1293E-001  
  645.00  1.1149E-001  
  645.50  1.1045E-001  
  646.00  1.0972E-001  
  646.50  1.0873E-001  
  647.00  1.0731E-001  
  647.50  1.0555E-001  
  648.00  1.0405E-001  
  648.50  1.0273E-001  
  649.00  1.0171E-001  
  649.50  1.0056E-001  
  650.00  9.9213E-002  
  650.50  9.8016E-002  
  651.00  9.6679E-002  
  651.50  9.5515E-002  
  652.00  9.4386E-002  
  652.50  9.2555E-002  
  653.00  9.0852E-002  
  653.50  8.9525E-002  
  654.00  8.8940E-002  
  654.50  8.8311E-002  
  655.00  8.7588E-002  
  655.50  8.6384E-002  
  656.00  8.4943E-002  
  656.50  8.3411E-002  
  657.00  8.2249E-002  
  657.50  8.1281E-002  
  658.00  8.0067E-002  
  658.50  7.8858E-002  
  659.00  7.7632E-002  
  659.50  7.6600E-002  
  660.00  7.6048E-002  
  660.50  7.5431E-002  
  661.00  7.4328E-002  
  661.50  7.2952E-002  
  662.00  7.1397E-002  
  662.50  7.0392E-002  
  663.00  6.9466E-002  
  663.50  6.8994E-002  
  664.00  6.8087E-002  
  664.50  6.7161E-002  
  665.00  6.6276E-002  
  665.50  6.5682E-002  
  666.00  6.4890E-002  
  666.50  6.3742E-002  
  667.00  6.2527E-002  
  667.50  6.1173E-002  
  668.00  6.0161E-002  
  668.50  5.8878E-002  
  669.00  5.8258E-002  
  669.50  5.7664E-002  
  670.00  5.7246E-002  
  670.50  5.6303E-002  
  671.00  5.5322E-002  
  671.50  5.4477E-002  
  672.00  5.3634E-002  
  672.50  5.2881E-002  
  673.00  5.2342E-002  
  673.50  5.1450E-002  
  674.00  5.0606E-002  
  674.50  4.9661E-002  
  675.00  4.9315E-002  
  675.50  4.8653E-002  
  676.00  4.7744E-002  
  676.50  4.6873E-002  
  677.00  4.6142E-002  
  677.50  4.5458E-002  
  678.00  4.4603E-002  
  678.50  4.3773E-002  
  679.00  4.3123E-002  
  679.50  4.2695E-002  
  680.00  4.2403E-002  
  680.50  4.1921E-002  
  681.00  4.0869E-002  
