
# From lspdd.org
# 
# Name: DEL RAB-Design VEK-2 Domestique
# Indice spectral Valeur 
# MSI 0.55 
# SLI 0.65 
# IPI 0.62 
# Pourcentage de bleu 36.0 
# Caractéristique Valeur 
# CCT calculée (K) 4888 
# CCT du fabricant (K) 5000 
# Tension (V) 120 
# Puissance (W) 52.0 
# Efficacité lumineuse (Lum/W) 72.0 
#
# Image: '/app/system/img_2s/2650/medium_image2.jpg?1432223032'
# Image: '/app/system/img_1s/2650/medium_image1.jpg?1432223023'
# 

  273.00  0.0000E+000  
  273.50  0.0000E+000  
  274.00  0.0000E+000  
  274.50  0.0000E+000  
  275.00  0.0000E+000  
  275.50  0.0000E+000  
  276.00  0.0000E+000  
  276.50  0.0000E+000  
  277.00  0.0000E+000  
  277.50  0.0000E+000  
  278.00  0.0000E+000  
  278.50  0.0000E+000  
  279.00  0.0000E+000  
  279.50  0.0000E+000  
  280.00  0.0000E+000  
  280.50  0.0000E+000  
  281.00  0.0000E+000  
  281.50  0.0000E+000  
  282.00  0.0000E+000  
  282.50  0.0000E+000  
  283.00  0.0000E+000  
  283.50  0.0000E+000  
  284.00  0.0000E+000  
  284.50  0.0000E+000  
  285.00  0.0000E+000  
  285.50  0.0000E+000  
  286.00  0.0000E+000  
  286.50  0.0000E+000  
  287.00  0.0000E+000  
  287.50  0.0000E+000  
  288.00  0.0000E+000  
  288.50  0.0000E+000  
  289.00  0.0000E+000  
  289.50  0.0000E+000  
  290.00  0.0000E+000  
  290.50  0.0000E+000  
  291.00  0.0000E+000  
  291.50  0.0000E+000  
  292.00  0.0000E+000  
  292.50  0.0000E+000  
  293.00  0.0000E+000  
  293.50  0.0000E+000  
  294.00  0.0000E+000  
  294.50  0.0000E+000  
  295.00  0.0000E+000  
  295.50  0.0000E+000  
  296.00  0.0000E+000  
  296.50  0.0000E+000  
  297.00  0.0000E+000  
  297.50  0.0000E+000  
  298.00  0.0000E+000  
  298.50  0.0000E+000  
  299.00  0.0000E+000  
  299.50  0.0000E+000  
  300.00  0.0000E+000  
  300.50  0.0000E+000  
  301.00  0.0000E+000  
  301.50  0.0000E+000  
  302.00  0.0000E+000  
  302.50  0.0000E+000  
  303.00  0.0000E+000  
  303.50  0.0000E+000  
  304.00  0.0000E+000  
  304.50  0.0000E+000  
  305.00  5.9474E-006  
  305.50  2.2047E-004  
  306.00  1.7276E-004  
  306.50  0.0000E+000  
  307.00  0.0000E+000  
  307.50  0.0000E+000  
  308.00  0.0000E+000  
  308.50  0.0000E+000  
  309.00  0.0000E+000  
  309.50  0.0000E+000  
  310.00  0.0000E+000  
  310.50  0.0000E+000  
  311.00  2.9475E-005  
  311.50  5.4491E-004  
  312.00  9.2037E-004  
  312.50  1.2625E-003  
  313.00  1.1431E-003  
  313.50  2.7221E-004  
  314.00  1.7127E-006  
  314.50  0.0000E+000  
  315.00  0.0000E+000  
  315.50  0.0000E+000  
  316.00  0.0000E+000  
  316.50  0.0000E+000  
  317.00  0.0000E+000  
  317.50  0.0000E+000  
  318.00  0.0000E+000  
  318.50  0.0000E+000  
  319.00  0.0000E+000  
  319.50  0.0000E+000  
  320.00  2.5676E-004  
  320.50  5.0107E-004  
  321.00  6.9328E-004  
  321.50  8.5373E-004  
  322.00  1.0086E-003  
  322.50  1.1228E-003  
  323.00  1.1835E-003  
  323.50  8.9032E-004  
  324.00  3.4325E-004  
  324.50  1.1787E-004  
  325.00  5.6633E-006  
  325.50  1.2235E-004  
  326.00  1.9177E-004  
  326.50  1.0511E-004  
  327.00  1.3805E-004  
  327.50  0.0000E+000  
  328.00  0.0000E+000  
  328.50  0.0000E+000  
  329.00  0.0000E+000  
  329.50  0.0000E+000  
  330.00  0.0000E+000  
  330.50  0.0000E+000  
  331.00  0.0000E+000  
  331.50  0.0000E+000  
  332.00  0.0000E+000  
  332.50  0.0000E+000  
  333.00  0.0000E+000  
  333.50  0.0000E+000  
  334.00  0.0000E+000  
  334.50  1.1427E-006  
  335.00  1.8889E-004  
  335.50  5.4311E-004  
  336.00  5.9334E-004  
  336.50  2.6461E-004  
  337.00  1.4651E-006  
  337.50  0.0000E+000  
  338.00  7.7458E-005  
  338.50  4.4813E-004  
  339.00  8.6424E-004  
  339.50  9.5027E-004  
  340.00  6.5264E-004  
  340.50  3.3505E-004  
  341.00  1.9943E-004  
  341.50  9.8694E-005  
  342.00  3.3744E-006  
  342.50  0.0000E+000  
  343.00  0.0000E+000  
  343.50  0.0000E+000  
  344.00  3.4338E-005  
  344.50  2.7536E-004  
  345.00  3.3310E-004  
  345.50  5.6661E-005  
  346.00  0.0000E+000  
  346.50  0.0000E+000  
  347.00  0.0000E+000  
  347.50  0.0000E+000  
  348.00  2.1440E-004  
  348.50  5.7035E-004  
  349.00  8.6537E-004  
  349.50  9.9186E-004  
  350.00  7.5717E-004  
  350.50  5.0245E-004  
  351.00  2.7993E-004  
  351.50  0.0000E+000  
  352.00  0.0000E+000  
  352.50  5.4016E-006  
  353.00  3.7980E-004  
  353.50  6.8605E-004  
  354.00  1.0915E-003  
  354.50  1.4792E-003  
  355.00  1.4916E-003  
  355.50  1.3020E-003  
  356.00  7.7754E-004  
  356.50  2.1875E-004  
  357.00  1.9268E-004  
  357.50  4.3357E-004  
  358.00  7.1978E-004  
  358.50  9.6011E-004  
  359.00  8.3448E-004  
  359.50  6.6929E-004  
  360.00  7.9781E-004  
  360.50  1.0902E-003  
  361.00  1.3584E-003  
  361.50  1.3608E-003  
  362.00  1.0191E-003  
  362.50  5.9789E-004  
  363.00  5.8237E-004  
  363.50  8.6749E-004  
  364.00  1.3592E-003  
  364.50  1.3989E-003  
  365.00  1.2241E-003  
  365.50  9.2724E-004  
  366.00  7.4238E-004  
  366.50  1.2118E-003  
  367.00  1.7005E-003  
  367.50  1.7450E-003  
  368.00  1.5258E-003  
  368.50  8.8458E-004  
  369.00  3.7350E-004  
  369.50  4.3795E-004  
  370.00  8.0185E-004  
  370.50  1.1502E-003  
  371.00  1.2641E-003  
  371.50  1.0544E-003  
  372.00  8.1097E-004  
  372.50  7.0120E-004  
  373.00  1.0423E-003  
  373.50  1.2362E-003  
  374.00  1.4523E-003  
  374.50  1.4451E-003  
  375.00  1.4833E-003  
  375.50  1.7170E-003  
  376.00  1.9530E-003  
  376.50  2.0421E-003  
  377.00  1.9232E-003  
  377.50  1.6434E-003  
  378.00  1.5283E-003  
  378.50  1.4979E-003  
  379.00  1.7412E-003  
  379.50  1.8513E-003  
  380.00  2.0631E-003  
  380.50  2.1396E-003  
  381.00  2.0426E-003  
  381.50  2.0157E-003  
  382.00  1.8830E-003  
  382.50  2.1966E-003  
  383.00  2.2732E-003  
  383.50  2.3029E-003  
  384.00  2.2488E-003  
  384.50  2.0976E-003  
  385.00  2.3128E-003  
  385.50  2.4536E-003  
  386.00  2.4994E-003  
  386.50  2.5372E-003  
  387.00  2.6753E-003  
  387.50  2.8709E-003  
  388.00  2.9920E-003  
  388.50  3.1626E-003  
  389.00  3.2898E-003  
  389.50  3.3383E-003  
  390.00  3.1234E-003  
  390.50  3.0356E-003  
  391.00  3.3826E-003  
  391.50  3.5917E-003  
  392.00  3.8918E-003  
  392.50  3.8245E-003  
  393.00  3.7144E-003  
  393.50  3.9775E-003  
  394.00  4.1877E-003  
  394.50  4.4320E-003  
  395.00  4.8695E-003  
  395.50  5.2314E-003  
  396.00  5.5296E-003  
  396.50  5.7657E-003  
  397.00  5.8070E-003  
  397.50  6.2853E-003  
  398.00  7.0122E-003  
  398.50  7.6193E-003  
  399.00  8.3612E-003  
  399.50  8.4327E-003  
  400.00  8.5746E-003  
  400.50  8.7614E-003  
  401.00  9.0501E-003  
  401.50  9.4557E-003  
  402.00  9.9743E-003  
  402.50  1.0850E-002  
  403.00  1.1739E-002  
  403.50  1.2754E-002  
  404.00  1.3622E-002  
  404.50  1.4586E-002  
  405.00  1.6121E-002  
  405.50  1.7752E-002  
  406.00  1.9547E-002  
  406.50  2.1508E-002  
  407.00  2.3347E-002  
  407.50  2.5432E-002  
  408.00  2.7402E-002  
  408.50  2.9652E-002  
  409.00  3.2098E-002  
  409.50  3.4921E-002  
  410.00  3.7923E-002  
  410.50  4.1202E-002  
  411.00  4.4884E-002  
  411.50  4.8974E-002  
  412.00  5.3306E-002  
  412.50  5.7918E-002  
  413.00  6.2951E-002  
  413.50  6.8672E-002  
  414.00  7.4599E-002  
  414.50  8.1068E-002  
  415.00  8.8234E-002  
  415.50  9.6153E-002  
  416.00  1.0441E-001  
  416.50  1.1281E-001  
  417.00  1.2129E-001  
  417.50  1.3084E-001  
  418.00  1.4110E-001  
  418.50  1.5269E-001  
  419.00  1.6504E-001  
  419.50  1.7735E-001  
  420.00  1.9070E-001  
  420.50  2.0504E-001  
  421.00  2.1930E-001  
  421.50  2.3470E-001  
  422.00  2.5010E-001  
  422.50  2.6572E-001  
  423.00  2.8249E-001  
  423.50  2.9960E-001  
  424.00  3.1685E-001  
  424.50  3.3396E-001  
  425.00  3.5074E-001  
  425.50  3.6812E-001  
  426.00  3.8555E-001  
  426.50  4.0238E-001  
  427.00  4.2042E-001  
  427.50  4.3864E-001  
  428.00  4.5820E-001  
  428.50  4.7768E-001  
  429.00  4.9500E-001  
  429.50  5.1213E-001  
  430.00  5.2943E-001  
  430.50  5.4913E-001  
  431.00  5.6826E-001  
  431.50  5.8424E-001  
  432.00  5.9683E-001  
  432.50  6.0872E-001  
  433.00  6.2116E-001  
  433.50  6.3710E-001  
  434.00  6.5378E-001  
  434.50  6.6651E-001  
  435.00  6.7882E-001  
  435.50  6.9017E-001  
  436.00  7.0337E-001  
  436.50  7.1537E-001  
  437.00  7.2633E-001  
  437.50  7.3394E-001  
  438.00  7.4030E-001  
  438.50  7.4601E-001  
  439.00  7.4884E-001  
  439.50  7.4995E-001  
  440.00  7.5119E-001  
  440.50  7.5047E-001  
  441.00  7.4701E-001  
  441.50  7.4015E-001  
  442.00  7.3085E-001  
  442.50  7.1952E-001  
  443.00  7.0592E-001  
  443.50  6.9112E-001  
  444.00  6.7676E-001  
  444.50  6.6212E-001  
  445.00  6.4473E-001  
  445.50  6.2426E-001  
  446.00  6.0121E-001  
  446.50  5.7743E-001  
  447.00  5.5361E-001  
  447.50  5.2896E-001  
  448.00  5.0498E-001  
  448.50  4.7954E-001  
  449.00  4.5366E-001  
  449.50  4.2717E-001  
  450.00  4.0238E-001  
  450.50  3.7982E-001  
  451.00  3.5765E-001  
  451.50  3.3546E-001  
  452.00  3.1374E-001  
  452.50  2.9382E-001  
  453.00  2.7589E-001  
  453.50  2.5933E-001  
  454.00  2.4411E-001  
  454.50  2.2929E-001  
  455.00  2.1579E-001  
  455.50  2.0277E-001  
  456.00  1.9057E-001  
  456.50  1.7971E-001  
  457.00  1.6989E-001  
  457.50  1.6107E-001  
  458.00  1.5274E-001  
  458.50  1.4608E-001  
  459.00  1.3975E-001  
  459.50  1.3365E-001  
  460.00  1.2731E-001  
  460.50  1.2099E-001  
  461.00  1.1591E-001  
  461.50  1.1186E-001  
  462.00  1.0748E-001  
  462.50  1.0313E-001  
  463.00  9.8703E-002  
  463.50  9.4830E-002  
  464.00  9.1926E-002  
  464.50  8.8845E-002  
  465.00  8.5903E-002  
  465.50  8.2581E-002  
  466.00  7.9467E-002  
  466.50  7.6528E-002  
  467.00  7.4062E-002  
  467.50  7.1953E-002  
  468.00  6.9605E-002  
  468.50  6.7448E-002  
  469.00  6.5474E-002  
  469.50  6.3532E-002  
  470.00  6.1838E-002  
  470.50  6.0293E-002  
  471.00  5.8953E-002  
  471.50  5.7750E-002  
  472.00  5.6769E-002  
  472.50  5.5673E-002  
  473.00  5.4514E-002  
  473.50  5.3701E-002  
  474.00  5.2676E-002  
  474.50  5.2161E-002  
  475.00  5.1509E-002  
  475.50  5.1148E-002  
  476.00  5.0799E-002  
  476.50  5.0784E-002  
  477.00  5.0734E-002  
  477.50  5.0668E-002  
  478.00  5.0551E-002  
  478.50  5.0461E-002  
  479.00  5.0230E-002  
  479.50  5.0185E-002  
  480.00  5.0400E-002  
  480.50  5.0915E-002  
  481.00  5.1540E-002  
  481.50  5.2123E-002  
  482.00  5.2610E-002  
  482.50  5.2787E-002  
  483.00  5.3194E-002  
  483.50  5.3703E-002  
  484.00  5.4388E-002  
  484.50  5.5756E-002  
  485.00  5.7089E-002  
  485.50  5.8478E-002  
  486.00  5.9910E-002  
  486.50  6.1185E-002  
  487.00  6.2713E-002  
  487.50  6.4517E-002  
  488.00  6.6382E-002  
  488.50  6.8719E-002  
  489.00  7.1439E-002  
  489.50  7.4036E-002  
  490.00  7.6644E-002  
  490.50  7.9016E-002  
  491.00  8.2074E-002  
  491.50  8.5457E-002  
  492.00  8.9075E-002  
  492.50  9.2677E-002  
  493.00  9.6511E-002  
  493.50  1.0043E-001  
  494.00  1.0463E-001  
  494.50  1.0880E-001  
  495.00  1.1272E-001  
  495.50  1.1711E-001  
  496.00  1.2172E-001  
  496.50  1.2670E-001  
  497.00  1.3212E-001  
  497.50  1.3763E-001  
  498.00  1.4321E-001  
  498.50  1.4903E-001  
  499.00  1.5482E-001  
  499.50  1.6108E-001  
  500.00  1.6730E-001  
  500.50  1.7329E-001  
  501.00  1.7918E-001  
  501.50  1.8513E-001  
  502.00  1.9139E-001  
  502.50  1.9809E-001  
  503.00  2.0497E-001  
  503.50  2.1189E-001  
  504.00  2.1914E-001  
  504.50  2.2639E-001  
  505.00  2.3351E-001  
  505.50  2.4055E-001  
  506.00  2.4752E-001  
  506.50  2.5464E-001  
  507.00  2.6215E-001  
  507.50  2.6948E-001  
  508.00  2.7676E-001  
  508.50  2.8409E-001  
  509.00  2.9106E-001  
  509.50  2.9843E-001  
  510.00  3.0569E-001  
  510.50  3.1325E-001  
  511.00  3.2083E-001  
  511.50  3.2804E-001  
  512.00  3.3486E-001  
  512.50  3.4161E-001  
  513.00  3.4800E-001  
  513.50  3.5455E-001  
  514.00  3.6061E-001  
  514.50  3.6722E-001  
  515.00  3.7406E-001  
  515.50  3.8066E-001  
  516.00  3.8717E-001  
  516.50  3.9338E-001  
  517.00  3.9933E-001  
  517.50  4.0529E-001  
  518.00  4.1083E-001  
  518.50  4.1654E-001  
  519.00  4.2174E-001  
  519.50  4.2697E-001  
  520.00  4.3204E-001  
  520.50  4.3725E-001  
  521.00  4.4260E-001  
  521.50  4.4788E-001  
  522.00  4.5250E-001  
  522.50  4.5681E-001  
  523.00  4.6138E-001  
  523.50  4.6626E-001  
  524.00  4.7175E-001  
  524.50  4.7679E-001  
  525.00  4.8099E-001  
  525.50  4.8421E-001  
  526.00  4.8710E-001  
  526.50  4.9024E-001  
  527.00  4.9452E-001  
  527.50  4.9957E-001  
  528.00  5.0437E-001  
  528.50  5.0846E-001  
  529.00  5.1110E-001  
  529.50  5.1264E-001  
  530.00  5.1435E-001  
  530.50  5.1686E-001  
  531.00  5.2027E-001  
  531.50  5.2340E-001  
  532.00  5.2659E-001  
  532.50  5.2961E-001  
  533.00  5.3199E-001  
  533.50  5.3408E-001  
  534.00  5.3572E-001  
  534.50  5.3792E-001  
  535.00  5.4077E-001  
  535.50  5.4298E-001  
  536.00  5.4440E-001  
  536.50  5.4589E-001  
  537.00  5.4775E-001  
  537.50  5.5007E-001  
  538.00  5.5240E-001  
  538.50  5.5435E-001  
  539.00  5.5624E-001  
  539.50  5.5805E-001  
  540.00  5.5968E-001  
  540.50  5.6075E-001  
  541.00  5.6151E-001  
  541.50  5.6232E-001  
  542.00  5.6347E-001  
  542.50  5.6519E-001  
  543.00  5.6672E-001  
  543.50  5.6791E-001  
  544.00  5.6903E-001  
  544.50  5.6961E-001  
  545.00  5.7094E-001  
  545.50  5.7216E-001  
  546.00  5.7372E-001  
  546.50  5.7490E-001  
  547.00  5.7562E-001  
  547.50  5.7642E-001  
  548.00  5.7645E-001  
  548.50  5.7665E-001  
  549.00  5.7766E-001  
  549.50  5.7839E-001  
  550.00  5.7917E-001  
  550.50  5.7962E-001  
  551.00  5.8018E-001  
  551.50  5.8164E-001  
  552.00  5.8244E-001  
  552.50  5.8303E-001  
  553.00  5.8299E-001  
  553.50  5.8324E-001  
  554.00  5.8394E-001  
  554.50  5.8468E-001  
  555.00  5.8511E-001  
  555.50  5.8488E-001  
  556.00  5.8497E-001  
  556.50  5.8494E-001  
  557.00  5.8511E-001  
  557.50  5.8488E-001  
  558.00  5.8537E-001  
  558.50  5.8601E-001  
  559.00  5.8694E-001  
  559.50  5.8719E-001  
  560.00  5.8775E-001  
  560.50  5.8772E-001  
  561.00  5.8779E-001  
  561.50  5.8730E-001  
  562.00  5.8691E-001  
  562.50  5.8716E-001  
  563.00  5.8692E-001  
  563.50  5.8670E-001  
  564.00  5.8603E-001  
  564.50  5.8552E-001  
  565.00  5.8474E-001  
  565.50  5.8420E-001  
  566.00  5.8342E-001  
  566.50  5.8306E-001  
  567.00  5.8204E-001  
  567.50  5.8137E-001  
  568.00  5.8085E-001  
  568.50  5.8076E-001  
  569.00  5.7981E-001  
  569.50  5.7838E-001  
  570.00  5.7636E-001  
  570.50  5.7505E-001  
  571.00  5.7361E-001  
  571.50  5.7238E-001  
  572.00  5.7110E-001  
  572.50  5.7044E-001  
  573.00  5.7006E-001  
  573.50  5.6940E-001  
  574.00  5.6807E-001  
  574.50  5.6691E-001  
  575.00  5.6605E-001  
  575.50  5.6493E-001  
  576.00  5.6343E-001  
  576.50  5.6196E-001  
  577.00  5.6117E-001  
  577.50  5.6062E-001  
  578.00  5.5950E-001  
  578.50  5.5757E-001  
  579.00  5.5521E-001  
  579.50  5.5369E-001  
  580.00  5.5219E-001  
  580.50  5.5052E-001  
  581.00  5.4875E-001  
  581.50  5.4699E-001  
  582.00  5.4557E-001  
  582.50  5.4366E-001  
  583.00  5.4132E-001  
  583.50  5.3876E-001  
  584.00  5.3667E-001  
  584.50  5.3529E-001  
  585.00  5.3383E-001  
  585.50  5.3172E-001  
  586.00  5.2913E-001  
  586.50  5.2600E-001  
  587.00  5.2307E-001  
  587.50  5.2082E-001  
  588.00  5.1944E-001  
  588.50  5.1832E-001  
  589.00  5.1597E-001  
  589.50  5.1323E-001  
  590.00  5.1076E-001  
  590.50  5.0811E-001  
  591.00  5.0488E-001  
  591.50  5.0260E-001  
  592.00  4.9999E-001  
  592.50  4.9846E-001  
  593.00  4.9624E-001  
  593.50  4.9324E-001  
  594.00  4.9053E-001  
  594.50  4.8724E-001  
  595.00  4.8497E-001  
  595.50  4.8211E-001  
  596.00  4.7956E-001  
  596.50  4.7639E-001  
  597.00  4.7383E-001  
  597.50  4.7086E-001  
  598.00  4.6852E-001  
  598.50  4.6635E-001  
  599.00  4.6400E-001  
  599.50  4.6085E-001  
  600.00  4.5717E-001  
  600.50  4.5349E-001  
  601.00  4.5092E-001  
  601.50  4.4796E-001  
  602.00  4.4487E-001  
  602.50  4.4164E-001  
  603.00  4.3845E-001  
  603.50  4.3570E-001  
  604.00  4.3269E-001  
  604.50  4.3010E-001  
  605.00  4.2761E-001  
  605.50  4.2467E-001  
  606.00  4.2169E-001  
  606.50  4.1834E-001  
  607.00  4.1492E-001  
  607.50  4.1121E-001  
  608.00  4.0741E-001  
  608.50  4.0437E-001  
  609.00  4.0201E-001  
  609.50  3.9934E-001  
  610.00  3.9645E-001  
  610.50  3.9349E-001  
  611.00  3.9044E-001  
  611.50  3.8796E-001  
  612.00  3.8476E-001  
  612.50  3.8194E-001  
  613.00  3.7865E-001  
  613.50  3.7503E-001  
  614.00  3.7127E-001  
  614.50  3.6801E-001  
  615.00  3.6523E-001  
  615.50  3.6200E-001  
  616.00  3.5858E-001  
  616.50  3.5492E-001  
  617.00  3.5210E-001  
  617.50  3.4952E-001  
  618.00  3.4608E-001  
  618.50  3.4298E-001  
  619.00  3.3959E-001  
  619.50  3.3757E-001  
  620.00  3.3462E-001  
  620.50  3.3167E-001  
  621.00  3.2829E-001  
  621.50  3.2516E-001  
  622.00  3.2210E-001  
  622.50  3.1861E-001  
  623.00  3.1537E-001  
  623.50  3.1249E-001  
  624.00  3.0988E-001  
  624.50  3.0717E-001  
  625.00  3.0449E-001  
  625.50  3.0160E-001  
  626.00  2.9884E-001  
  626.50  2.9569E-001  
  627.00  2.9286E-001  
  627.50  2.9031E-001  
  628.00  2.8750E-001  
  628.50  2.8449E-001  
  629.00  2.8137E-001  
  629.50  2.7828E-001  
  630.00  2.7564E-001  
  630.50  2.7293E-001  
  631.00  2.7069E-001  
  631.50  2.6854E-001  
  632.00  2.6638E-001  
  632.50  2.6386E-001  
  633.00  2.6126E-001  
  633.50  2.5862E-001  
  634.00  2.5572E-001  
  634.50  2.5234E-001  
  635.00  2.4900E-001  
  635.50  2.4580E-001  
  636.00  2.4323E-001  
  636.50  2.4063E-001  
  637.00  2.3832E-001  
  637.50  2.3614E-001  
  638.00  2.3411E-001  
  638.50  2.3226E-001  
  639.00  2.2968E-001  
  639.50  2.2707E-001  
  640.00  2.2505E-001  
  640.50  2.2290E-001  
  641.00  2.1996E-001  
  641.50  2.1639E-001  
  642.00  2.1310E-001  
  642.50  2.1060E-001  
  643.00  2.0842E-001  
  643.50  2.0677E-001  
  644.00  2.0513E-001  
  644.50  2.0273E-001  
  645.00  2.0011E-001  
  645.50  1.9779E-001  
  646.00  1.9621E-001  
  646.50  1.9409E-001  
  647.00  1.9137E-001  
  647.50  1.8832E-001  
  648.00  1.8617E-001  
  648.50  1.8422E-001  
  649.00  1.8248E-001  
  649.50  1.8069E-001  
  650.00  1.7861E-001  
  650.50  1.7658E-001  
  651.00  1.7427E-001  
  651.50  1.7208E-001  
  652.00  1.6947E-001  
  652.50  1.6688E-001  
  653.00  1.6475E-001  
  653.50  1.6268E-001  
  654.00  1.6100E-001  
  654.50  1.5959E-001  
  655.00  1.5799E-001  
  655.50  1.5601E-001  
  656.00  1.5355E-001  
  656.50  1.5190E-001  
  657.00  1.5036E-001  
  657.50  1.4876E-001  
  658.00  1.4643E-001  
  658.50  1.4426E-001  
  659.00  1.4258E-001  
  659.50  1.4100E-001  
  660.00  1.3917E-001  
  660.50  1.3713E-001  
  661.00  1.3575E-001  
  661.50  1.3462E-001  
  662.00  1.3291E-001  
  662.50  1.3126E-001  
  663.00  1.2935E-001  
  663.50  1.2791E-001  
  664.00  1.2622E-001  
  664.50  1.2467E-001  
  665.00  1.2265E-001  
  665.50  1.2083E-001  
  666.00  1.1905E-001  
  666.50  1.1773E-001  
  667.00  1.1617E-001  
  667.50  1.1483E-001  
  668.00  1.1355E-001  
  668.50  1.1203E-001  
  669.00  1.1020E-001  
  669.50  1.0811E-001  
  670.00  1.0614E-001  
  670.50  1.0495E-001  
  671.00  1.0421E-001  
  671.50  1.0345E-001  
  672.00  1.0201E-001  
  672.50  1.0017E-001  
  673.00  9.8528E-002  
  673.50  9.7202E-002  
  674.00  9.6338E-002  
  674.50  9.5562E-002  
  675.00  9.4811E-002  
  675.50  9.3492E-002  
  676.00  9.2063E-002  
  676.50  9.0910E-002  
  677.00  9.0015E-002  
  677.50  8.8913E-002  
  678.00  8.7340E-002  
  678.50  8.5979E-002  
  679.00  8.4820E-002  
  679.50  8.3872E-002  
