
# From lspdd.org
# 
# Name: DEL DALS Cylinder-1012 Domestique
# Indice spectral Valeur 
# MSI 0.50 
# SLI 0.68 
# IPI 0.68 
# Pourcentage de bleu 31.4 
# Caractéristique Valeur 
# CCT calculée (K) 4020 
# CCT du fabricant (K) 4000 
# Tension (V) 120 
# Puissance (W) 15.0 
# Efficacité lumineuse (Lum/W) 70.0 
#
# Image: '/app/system/img_2s/2651/medium_image2.jpg?1432223059'
# Image: '/app/system/img_1s/2651/medium_image1.jpg?1432223050'
# 

  273.00  0.0000E+000  
  273.50  0.0000E+000  
  274.00  0.0000E+000  
  274.50  0.0000E+000  
  275.00  0.0000E+000  
  275.50  0.0000E+000  
  276.00  0.0000E+000  
  276.50  0.0000E+000  
  277.00  0.0000E+000  
  277.50  0.0000E+000  
  278.00  0.0000E+000  
  278.50  0.0000E+000  
  279.00  0.0000E+000  
  279.50  0.0000E+000  
  280.00  0.0000E+000  
  280.50  0.0000E+000  
  281.00  0.0000E+000  
  281.50  0.0000E+000  
  282.00  0.0000E+000  
  282.50  0.0000E+000  
  283.00  0.0000E+000  
  283.50  0.0000E+000  
  284.00  0.0000E+000  
  284.50  0.0000E+000  
  285.00  0.0000E+000  
  285.50  0.0000E+000  
  286.00  0.0000E+000  
  286.50  0.0000E+000  
  287.00  0.0000E+000  
  287.50  0.0000E+000  
  288.00  0.0000E+000  
  288.50  0.0000E+000  
  289.00  0.0000E+000  
  289.50  0.0000E+000  
  290.00  0.0000E+000  
  290.50  0.0000E+000  
  291.00  0.0000E+000  
  291.50  0.0000E+000  
  292.00  0.0000E+000  
  292.50  0.0000E+000  
  293.00  0.0000E+000  
  293.50  0.0000E+000  
  294.00  0.0000E+000  
  294.50  0.0000E+000  
  295.00  0.0000E+000  
  295.50  0.0000E+000  
  296.00  0.0000E+000  
  296.50  0.0000E+000  
  297.00  0.0000E+000  
  297.50  0.0000E+000  
  298.00  0.0000E+000  
  298.50  0.0000E+000  
  299.00  0.0000E+000  
  299.50  0.0000E+000  
  300.00  4.7377E-004  
  300.50  1.2110E-003  
  301.00  1.0085E-003  
  301.50  9.6408E-004  
  302.00  1.3284E-003  
  302.50  1.8605E-003  
  303.00  2.2185E-003  
  303.50  2.1232E-003  
  304.00  2.2077E-003  
  304.50  2.3553E-003  
  305.00  2.4727E-003  
  305.50  2.8561E-003  
  306.00  2.6262E-003  
  306.50  2.4658E-003  
  307.00  2.7424E-003  
  307.50  2.4572E-003  
  308.00  2.6306E-003  
  308.50  2.8615E-003  
  309.00  3.0766E-003  
  309.50  3.1135E-003  
  310.00  2.9494E-003  
  310.50  2.7669E-003  
  311.00  2.1686E-003  
  311.50  2.4801E-003  
  312.00  2.7054E-003  
  312.50  2.7741E-003  
  313.00  3.1492E-003  
  313.50  3.0823E-003  
  314.00  2.7612E-003  
  314.50  2.6114E-003  
  315.00  2.2234E-003  
  315.50  2.2297E-003  
  316.00  2.3199E-003  
  316.50  2.4630E-003  
  317.00  2.2581E-003  
  317.50  1.9606E-003  
  318.00  2.0685E-003  
  318.50  2.2981E-003  
  319.00  3.0287E-003  
  319.50  2.9973E-003  
  320.00  2.9780E-003  
  320.50  2.7759E-003  
  321.00  2.4245E-003  
  321.50  2.3859E-003  
  322.00  2.0999E-003  
  322.50  2.0134E-003  
  323.00  1.8124E-003  
  323.50  1.8132E-003  
  324.00  2.3184E-003  
  324.50  3.0029E-003  
  325.00  3.6486E-003  
  325.50  3.5676E-003  
  326.00  3.1919E-003  
  326.50  2.7612E-003  
  327.00  2.6807E-003  
  327.50  2.7553E-003  
  328.00  2.5130E-003  
  328.50  2.3167E-003  
  329.00  2.4932E-003  
  329.50  2.8816E-003  
  330.00  3.3460E-003  
  330.50  3.3406E-003  
  331.00  2.8725E-003  
  331.50  2.3752E-003  
  332.00  2.4830E-003  
  332.50  2.5234E-003  
  333.00  2.6134E-003  
  333.50  2.6805E-003  
  334.00  2.3877E-003  
  334.50  2.3742E-003  
  335.00  2.4017E-003  
  335.50  2.6897E-003  
  336.00  3.1116E-003  
  336.50  2.9461E-003  
  337.00  2.7615E-003  
  337.50  2.4917E-003  
  338.00  2.3316E-003  
  338.50  2.2825E-003  
  339.00  2.4095E-003  
  339.50  2.5365E-003  
  340.00  3.0294E-003  
  340.50  3.3094E-003  
  341.00  3.0333E-003  
  341.50  2.6047E-003  
  342.00  2.1464E-003  
  342.50  2.1589E-003  
  343.00  2.2058E-003  
  343.50  2.2741E-003  
  344.00  2.4798E-003  
  344.50  2.8488E-003  
  345.00  3.2094E-003  
  345.50  3.1986E-003  
  346.00  2.9235E-003  
  346.50  2.8573E-003  
  347.00  3.0564E-003  
  347.50  3.3295E-003  
  348.00  3.0792E-003  
  348.50  2.9483E-003  
  349.00  3.1180E-003  
  349.50  3.1293E-003  
  350.00  3.0929E-003  
  350.50  2.6651E-003  
  351.00  2.2379E-003  
  351.50  2.1554E-003  
  352.00  2.3574E-003  
  352.50  2.5188E-003  
  353.00  2.7075E-003  
  353.50  2.7095E-003  
  354.00  2.5021E-003  
  354.50  2.3691E-003  
  355.00  2.4975E-003  
  355.50  2.8457E-003  
  356.00  3.1626E-003  
  356.50  3.4455E-003  
  357.00  3.3914E-003  
  357.50  3.1929E-003  
  358.00  2.8282E-003  
  358.50  2.5043E-003  
  359.00  2.7208E-003  
  359.50  2.8846E-003  
  360.00  3.3019E-003  
  360.50  3.4054E-003  
  361.00  3.2767E-003  
  361.50  3.2471E-003  
  362.00  3.0758E-003  
  362.50  2.8403E-003  
  363.00  2.6608E-003  
  363.50  2.5305E-003  
  364.00  2.6395E-003  
  364.50  2.8293E-003  
  365.00  3.1405E-003  
  365.50  3.3833E-003  
  366.00  3.2169E-003  
  366.50  3.1252E-003  
  367.00  3.0691E-003  
  367.50  2.9941E-003  
  368.00  3.1319E-003  
  368.50  3.1978E-003  
  369.00  3.2251E-003  
  369.50  3.2272E-003  
  370.00  3.1226E-003  
  370.50  3.2871E-003  
  371.00  3.4910E-003  
  371.50  3.8087E-003  
  372.00  3.6494E-003  
  372.50  3.1665E-003  
  373.00  2.6019E-003  
  373.50  2.2224E-003  
  374.00  2.5930E-003  
  374.50  3.0531E-003  
  375.00  3.3950E-003  
  375.50  3.5796E-003  
  376.00  3.4848E-003  
  376.50  3.3592E-003  
  377.00  3.4324E-003  
  377.50  3.4844E-003  
  378.00  3.7746E-003  
  378.50  4.3831E-003  
  379.00  4.5720E-003  
  379.50  4.4839E-003  
  380.00  3.9822E-003  
  380.50  3.5961E-003  
  381.00  3.7945E-003  
  381.50  3.9973E-003  
  382.00  4.1725E-003  
  382.50  4.1188E-003  
  383.00  3.8054E-003  
  383.50  3.7838E-003  
  384.00  4.1027E-003  
  384.50  4.3663E-003  
  385.00  4.5807E-003  
  385.50  4.7741E-003  
  386.00  4.7330E-003  
  386.50  4.6087E-003  
  387.00  4.6215E-003  
  387.50  4.3767E-003  
  388.00  4.2501E-003  
  388.50  4.1084E-003  
  389.00  3.9516E-003  
  389.50  3.9660E-003  
  390.00  4.2512E-003  
  390.50  4.5792E-003  
  391.00  4.6960E-003  
  391.50  4.4926E-003  
  392.00  4.4751E-003  
  392.50  4.6400E-003  
  393.00  5.0186E-003  
  393.50  5.2140E-003  
  394.00  5.0608E-003  
  394.50  4.7941E-003  
  395.00  4.6571E-003  
  395.50  4.5757E-003  
  396.00  4.4239E-003  
  396.50  4.6609E-003  
  397.00  4.9519E-003  
  397.50  5.3042E-003  
  398.00  5.3672E-003  
  398.50  5.2071E-003  
  399.00  5.2476E-003  
  399.50  5.4565E-003  
  400.00  6.0860E-003  
  400.50  6.4528E-003  
  401.00  6.5317E-003  
  401.50  6.4766E-003  
  402.00  6.3727E-003  
  402.50  6.5463E-003  
  403.00  6.7131E-003  
  403.50  6.9628E-003  
  404.00  7.0408E-003  
  404.50  7.2915E-003  
  405.00  7.7721E-003  
  405.50  8.1977E-003  
  406.00  8.3440E-003  
  406.50  8.6761E-003  
  407.00  8.8993E-003  
  407.50  9.5808E-003  
  408.00  1.0187E-002  
  408.50  1.0549E-002  
  409.00  1.0892E-002  
  409.50  1.1179E-002  
  410.00  1.1919E-002  
  410.50  1.2569E-002  
  411.00  1.3189E-002  
  411.50  1.3629E-002  
  412.00  1.3913E-002  
  412.50  1.4589E-002  
  413.00  1.5489E-002  
  413.50  1.6825E-002  
  414.00  1.8161E-002  
  414.50  1.9393E-002  
  415.00  2.0697E-002  
  415.50  2.1840E-002  
  416.00  2.2882E-002  
  416.50  2.4017E-002  
  417.00  2.5203E-002  
  417.50  2.6915E-002  
  418.00  2.8752E-002  
  418.50  3.0515E-002  
  419.00  3.2457E-002  
  419.50  3.4486E-002  
  420.00  3.7004E-002  
  420.50  3.9828E-002  
  421.00  4.2769E-002  
  421.50  4.5761E-002  
  422.00  4.8477E-002  
  422.50  5.1086E-002  
  423.00  5.3666E-002  
  423.50  5.6775E-002  
  424.00  6.0335E-002  
  424.50  6.4497E-002  
  425.00  6.8764E-002  
  425.50  7.3326E-002  
  426.00  7.7671E-002  
  426.50  8.1740E-002  
  427.00  8.6534E-002  
  427.50  9.1784E-002  
  428.00  9.8137E-002  
  428.50  1.0492E-001  
  429.00  1.1098E-001  
  429.50  1.1666E-001  
  430.00  1.2297E-001  
  430.50  1.3057E-001  
  431.00  1.3898E-001  
  431.50  1.4741E-001  
  432.00  1.5498E-001  
  432.50  1.6260E-001  
  433.00  1.7045E-001  
  433.50  1.7993E-001  
  434.00  1.9064E-001  
  434.50  2.0075E-001  
  435.00  2.1142E-001  
  435.50  2.2249E-001  
  436.00  2.3474E-001  
  436.50  2.4835E-001  
  437.00  2.6276E-001  
  437.50  2.7719E-001  
  438.00  2.9210E-001  
  438.50  3.0811E-001  
  439.00  3.2425E-001  
  439.50  3.4281E-001  
  440.00  3.6359E-001  
  440.50  3.8549E-001  
  441.00  4.0804E-001  
  441.50  4.3073E-001  
  442.00  4.5432E-001  
  442.50  4.7912E-001  
  443.00  5.0575E-001  
  443.50  5.3361E-001  
  444.00  5.6431E-001  
  444.50  5.9684E-001  
  445.00  6.2887E-001  
  445.50  6.6005E-001  
  446.00  6.9011E-001  
  446.50  7.1990E-001  
  447.00  7.4881E-001  
  447.50  7.7501E-001  
  448.00  8.0029E-001  
  448.50  8.2171E-001  
  449.00  8.4212E-001  
  449.50  8.5766E-001  
  450.00  8.7153E-001  
  450.50  8.8271E-001  
  451.00  8.9053E-001  
  451.50  8.9028E-001  
  452.00  8.8440E-001  
  452.50  8.7458E-001  
  453.00  8.6390E-001  
  453.50  8.5148E-001  
  454.00  8.3438E-001  
  454.50  8.1355E-001  
  455.00  7.9061E-001  
  455.50  7.6604E-001  
  456.00  7.3972E-001  
  456.50  7.1331E-001  
  457.00  6.8779E-001  
  457.50  6.6409E-001  
  458.00  6.3868E-001  
  458.50  6.1636E-001  
  459.00  5.9479E-001  
  459.50  5.7504E-001  
  460.00  5.5639E-001  
  460.50  5.3767E-001  
  461.00  5.2216E-001  
  461.50  5.0857E-001  
  462.00  4.9623E-001  
  462.50  4.8462E-001  
  463.00  4.7337E-001  
  463.50  4.6174E-001  
  464.00  4.5175E-001  
  464.50  4.4100E-001  
  465.00  4.3194E-001  
  465.50  4.2250E-001  
  466.00  4.1342E-001  
  466.50  4.0423E-001  
  467.00  3.9463E-001  
  467.50  3.8562E-001  
  468.00  3.7658E-001  
  468.50  3.6775E-001  
  469.00  3.5845E-001  
  469.50  3.4804E-001  
  470.00  3.3785E-001  
  470.50  3.2895E-001  
  471.00  3.1968E-001  
  471.50  3.1110E-001  
  472.00  3.0204E-001  
  472.50  2.9346E-001  
  473.00  2.8576E-001  
  473.50  2.7856E-001  
  474.00  2.7209E-001  
  474.50  2.6607E-001  
  475.00  2.6034E-001  
  475.50  2.5497E-001  
  476.00  2.4964E-001  
  476.50  2.4536E-001  
  477.00  2.4225E-001  
  477.50  2.3954E-001  
  478.00  2.3700E-001  
  478.50  2.3470E-001  
  479.00  2.3328E-001  
  479.50  2.3229E-001  
  480.00  2.3167E-001  
  480.50  2.3046E-001  
  481.00  2.2906E-001  
  481.50  2.2834E-001  
  482.00  2.2818E-001  
  482.50  2.2873E-001  
  483.00  2.2876E-001  
  483.50  2.2899E-001  
  484.00  2.2923E-001  
  484.50  2.3013E-001  
  485.00  2.3091E-001  
  485.50  2.3155E-001  
  486.00  2.3246E-001  
  486.50  2.3326E-001  
  487.00  2.3418E-001  
  487.50  2.3500E-001  
  488.00  2.3650E-001  
  488.50  2.3837E-001  
  489.00  2.4088E-001  
  489.50  2.4298E-001  
  490.00  2.4533E-001  
  490.50  2.4786E-001  
  491.00  2.5082E-001  
  491.50  2.5403E-001  
  492.00  2.5725E-001  
  492.50  2.6073E-001  
  493.00  2.6416E-001  
  493.50  2.6836E-001  
  494.00  2.7247E-001  
  494.50  2.7680E-001  
  495.00  2.8073E-001  
  495.50  2.8504E-001  
  496.00  2.8953E-001  
  496.50  2.9456E-001  
  497.00  2.9964E-001  
  497.50  3.0481E-001  
  498.00  3.0932E-001  
  498.50  3.1428E-001  
  499.00  3.1896E-001  
  499.50  3.2422E-001  
  500.00  3.2926E-001  
  500.50  3.3372E-001  
  501.00  3.3843E-001  
  501.50  3.4303E-001  
  502.00  3.4807E-001  
  502.50  3.5305E-001  
  503.00  3.5790E-001  
  503.50  3.6280E-001  
  504.00  3.6791E-001  
  504.50  3.7305E-001  
  505.00  3.7822E-001  
  505.50  3.8359E-001  
  506.00  3.8762E-001  
  506.50  3.9204E-001  
  507.00  3.9599E-001  
  507.50  4.0074E-001  
  508.00  4.0560E-001  
  508.50  4.1000E-001  
  509.00  4.1361E-001  
  509.50  4.1747E-001  
  510.00  4.2181E-001  
  510.50  4.2647E-001  
  511.00  4.3103E-001  
  511.50  4.3452E-001  
  512.00  4.3765E-001  
  512.50  4.4110E-001  
  513.00  4.4506E-001  
  513.50  4.4966E-001  
  514.00  4.5370E-001  
  514.50  4.5800E-001  
  515.00  4.6214E-001  
  515.50  4.6591E-001  
  516.00  4.6968E-001  
  516.50  4.7318E-001  
  517.00  4.7664E-001  
  517.50  4.8025E-001  
  518.00  4.8362E-001  
  518.50  4.8676E-001  
  519.00  4.8894E-001  
  519.50  4.9120E-001  
  520.00  4.9371E-001  
  520.50  4.9701E-001  
  521.00  5.0122E-001  
  521.50  5.0476E-001  
  522.00  5.0781E-001  
  522.50  5.0972E-001  
  523.00  5.1180E-001  
  523.50  5.1491E-001  
  524.00  5.1870E-001  
  524.50  5.2207E-001  
  525.00  5.2503E-001  
  525.50  5.2784E-001  
  526.00  5.3077E-001  
  526.50  5.3375E-001  
  527.00  5.3722E-001  
  527.50  5.4112E-001  
  528.00  5.4501E-001  
  528.50  5.4774E-001  
  529.00  5.4980E-001  
  529.50  5.5079E-001  
  530.00  5.5265E-001  
  530.50  5.5585E-001  
  531.00  5.5933E-001  
  531.50  5.6252E-001  
  532.00  5.6464E-001  
  532.50  5.6714E-001  
  533.00  5.6967E-001  
  533.50  5.7181E-001  
  534.00  5.7384E-001  
  534.50  5.7622E-001  
  535.00  5.7947E-001  
  535.50  5.8231E-001  
  536.00  5.8461E-001  
  536.50  5.8691E-001  
  537.00  5.8951E-001  
  537.50  5.9200E-001  
  538.00  5.9419E-001  
  538.50  5.9680E-001  
  539.00  5.9975E-001  
  539.50  6.0261E-001  
  540.00  6.0460E-001  
  540.50  6.0600E-001  
  541.00  6.0757E-001  
  541.50  6.0953E-001  
  542.00  6.1167E-001  
  542.50  6.1438E-001  
  543.00  6.1728E-001  
  543.50  6.2003E-001  
  544.00  6.2234E-001  
  544.50  6.2384E-001  
  545.00  6.2596E-001  
  545.50  6.2837E-001  
  546.00  6.3078E-001  
  546.50  6.3308E-001  
  547.00  6.3503E-001  
  547.50  6.3709E-001  
  548.00  6.3870E-001  
  548.50  6.4024E-001  
  549.00  6.4229E-001  
  549.50  6.4429E-001  
  550.00  6.4594E-001  
  550.50  6.4783E-001  
  551.00  6.4997E-001  
  551.50  6.5286E-001  
  552.00  6.5553E-001  
  552.50  6.5806E-001  
  553.00  6.6027E-001  
  553.50  6.6182E-001  
  554.00  6.6377E-001  
  554.50  6.6597E-001  
  555.00  6.6846E-001  
  555.50  6.7044E-001  
  556.00  6.7292E-001  
  556.50  6.7504E-001  
  557.00  6.7699E-001  
  557.50  6.7872E-001  
  558.00  6.8079E-001  
  558.50  6.8319E-001  
  559.00  6.8496E-001  
  559.50  6.8638E-001  
  560.00  6.8832E-001  
  560.50  6.9066E-001  
  561.00  6.9344E-001  
  561.50  6.9594E-001  
  562.00  6.9804E-001  
  562.50  7.0025E-001  
  563.00  7.0180E-001  
  563.50  7.0398E-001  
  564.00  7.0595E-001  
  564.50  7.0799E-001  
  565.00  7.0955E-001  
  565.50  7.1079E-001  
  566.00  7.1169E-001  
  566.50  7.1300E-001  
  567.00  7.1425E-001  
  567.50  7.1596E-001  
  568.00  7.1784E-001  
  568.50  7.1994E-001  
  569.00  7.2166E-001  
  569.50  7.2332E-001  
  570.00  7.2429E-001  
  570.50  7.2617E-001  
  571.00  7.2784E-001  
  571.50  7.2966E-001  
  572.00  7.3071E-001  
  572.50  7.3209E-001  
  573.00  7.3355E-001  
  573.50  7.3581E-001  
  574.00  7.3717E-001  
  574.50  7.3839E-001  
  575.00  7.3964E-001  
  575.50  7.4095E-001  
  576.00  7.4249E-001  
  576.50  7.4348E-001  
  577.00  7.4456E-001  
  577.50  7.4503E-001  
  578.00  7.4520E-001  
  578.50  7.4592E-001  
  579.00  7.4759E-001  
  579.50  7.4992E-001  
  580.00  7.5163E-001  
  580.50  7.5184E-001  
  581.00  7.5219E-001  
  581.50  7.5269E-001  
  582.00  7.5407E-001  
  582.50  7.5489E-001  
  583.00  7.5462E-001  
  583.50  7.5421E-001  
  584.00  7.5374E-001  
  584.50  7.5473E-001  
  585.00  7.5590E-001  
  585.50  7.5739E-001  
  586.00  7.5800E-001  
  586.50  7.5807E-001  
  587.00  7.5802E-001  
  587.50  7.5912E-001  
  588.00  7.6047E-001  
  588.50  7.6165E-001  
  589.00  7.6180E-001  
  589.50  7.6181E-001  
  590.00  7.6232E-001  
  590.50  7.6279E-001  
  591.00  7.6322E-001  
  591.50  7.6370E-001  
  592.00  7.6369E-001  
  592.50  7.6377E-001  
  593.00  7.6357E-001  
  593.50  7.6302E-001  
  594.00  7.6248E-001  
  594.50  7.6200E-001  
  595.00  7.6134E-001  
  595.50  7.6099E-001  
  596.00  7.6098E-001  
  596.50  7.6139E-001  
  597.00  7.6101E-001  
  597.50  7.5956E-001  
  598.00  7.5795E-001  
  598.50  7.5667E-001  
  599.00  7.5628E-001  
  599.50  7.5564E-001  
  600.00  7.5502E-001  
  600.50  7.5349E-001  
  601.00  7.5253E-001  
  601.50  7.5153E-001  
  602.00  7.5021E-001  
  602.50  7.4846E-001  
  603.00  7.4712E-001  
  603.50  7.4593E-001  
  604.00  7.4500E-001  
  604.50  7.4355E-001  
  605.00  7.4240E-001  
  605.50  7.4093E-001  
  606.00  7.3871E-001  
  606.50  7.3614E-001  
  607.00  7.3380E-001  
  607.50  7.3131E-001  
  608.00  7.2934E-001  
  608.50  7.2731E-001  
  609.00  7.2573E-001  
  609.50  7.2416E-001  
  610.00  7.2229E-001  
  610.50  7.2022E-001  
  611.00  7.1882E-001  
  611.50  7.1713E-001  
  612.00  7.1558E-001  
  612.50  7.1303E-001  
  613.00  7.1031E-001  
  613.50  7.0704E-001  
  614.00  7.0289E-001  
  614.50  6.9939E-001  
  615.00  6.9600E-001  
  615.50  6.9381E-001  
  616.00  6.9109E-001  
  616.50  6.8801E-001  
  617.00  6.8407E-001  
  617.50  6.8062E-001  
  618.00  6.7769E-001  
  618.50  6.7503E-001  
  619.00  6.7162E-001  
  619.50  6.6840E-001  
  620.00  6.6465E-001  
  620.50  6.6119E-001  
  621.00  6.5714E-001  
  621.50  6.5329E-001  
  622.00  6.4954E-001  
  622.50  6.4583E-001  
  623.00  6.4275E-001  
  623.50  6.3910E-001  
  624.00  6.3546E-001  
  624.50  6.3072E-001  
  625.00  6.2631E-001  
  625.50  6.2205E-001  
  626.00  6.1829E-001  
  626.50  6.1441E-001  
  627.00  6.1022E-001  
  627.50  6.0628E-001  
  628.00  6.0276E-001  
  628.50  5.9838E-001  
  629.00  5.9395E-001  
  629.50  5.8920E-001  
  630.00  5.8646E-001  
  630.50  5.8305E-001  
  631.00  5.7923E-001  
  631.50  5.7393E-001  
  632.00  5.6851E-001  
  632.50  5.6416E-001  
  633.00  5.6053E-001  
  633.50  5.5750E-001  
  634.00  5.5485E-001  
  634.50  5.5134E-001  
  635.00  5.4712E-001  
  635.50  5.4176E-001  
  636.00  5.3648E-001  
  636.50  5.3173E-001  
  637.00  5.2724E-001  
  637.50  5.2347E-001  
  638.00  5.1973E-001  
  638.50  5.1571E-001  
  639.00  5.1122E-001  
  639.50  5.0708E-001  
  640.00  5.0354E-001  
  640.50  4.9977E-001  
  641.00  4.9578E-001  
  641.50  4.9174E-001  
  642.00  4.8720E-001  
  642.50  4.8242E-001  
  643.00  4.7732E-001  
  643.50  4.7241E-001  
  644.00  4.6825E-001  
  644.50  4.6370E-001  
  645.00  4.6019E-001  
  645.50  4.5673E-001  
  646.00  4.5292E-001  
  646.50  4.4827E-001  
  647.00  4.4361E-001  
  647.50  4.3920E-001  
  648.00  4.3524E-001  
  648.50  4.3116E-001  
  649.00  4.2730E-001  
  649.50  4.2332E-001  
  650.00  4.1912E-001  
  650.50  4.1503E-001  
  651.00  4.1129E-001  
  651.50  4.0696E-001  
  652.00  4.0281E-001  
  652.50  3.9801E-001  
  653.00  3.9383E-001  
  653.50  3.8879E-001  
  654.00  3.8464E-001  
  654.50  3.8096E-001  
  655.00  3.7776E-001  
  655.50  3.7384E-001  
  656.00  3.6881E-001  
  656.50  3.6493E-001  
  657.00  3.6187E-001  
  657.50  3.5922E-001  
  658.00  3.5459E-001  
  658.50  3.4978E-001  
  659.00  3.4476E-001  
  659.50  3.4083E-001  
  660.00  3.3709E-001  
  660.50  3.3405E-001  
  661.00  3.3122E-001  
  661.50  3.2833E-001  
  662.00  3.2471E-001  
  662.50  3.2069E-001  
  663.00  3.1610E-001  
  663.50  3.1145E-001  
  664.00  3.0707E-001  
  664.50  3.0310E-001  
  665.00  2.9964E-001  
  665.50  2.9661E-001  
  666.00  2.9329E-001  
  666.50  2.8980E-001  
  667.00  2.8623E-001  
  667.50  2.8259E-001  
  668.00  2.7883E-001  
  668.50  2.7502E-001  
  669.00  2.7188E-001  
  669.50  2.6915E-001  
  670.00  2.6641E-001  
  670.50  2.6275E-001  
  671.00  2.5957E-001  
  671.50  2.5620E-001  
  672.00  2.5309E-001  
  672.50  2.4942E-001  
  673.00  2.4616E-001  
  673.50  2.4257E-001  
  674.00  2.3898E-001  
  674.50  2.3540E-001  
  675.00  2.3282E-001  
  675.50  2.3017E-001  
  676.00  2.2682E-001  
  676.50  2.2330E-001  
  677.00  2.2039E-001  
  677.50  2.1748E-001  
  678.00  2.1414E-001  
  678.50  2.1057E-001  
  679.00  2.0789E-001  
  679.50  2.0610E-001  
