
# From lspdd.org
# 
# Name: DEL DALS Step-light-001 Domestique
# Indice spectral Valeur 
# MSI 0.33 
# SLI 0.53 
# IPI 0.67 
# Pourcentage de bleu 21.1 
# Caractéristique Valeur 
# CCT calculée (K) 3027 
# CCT du fabricant (K) 3000 
# Tension (V) 120 
# Puissance (W) 4.5 
# Efficacité lumineuse (Lum/W) 79.0 
#
# Image: '/app/system/img_2s/2654/medium_image2.jpg?1432223106'
# Image: '/app/system/img_1s/2654/medium_image1.jpg?1432223102'
# 

  273.00  0.0000E+000  
  273.50  0.0000E+000  
  274.00  0.0000E+000  
  274.50  0.0000E+000  
  275.00  0.0000E+000  
  275.50  0.0000E+000  
  276.00  0.0000E+000  
  276.50  0.0000E+000  
  277.00  0.0000E+000  
  277.50  0.0000E+000  
  278.00  0.0000E+000  
  278.50  0.0000E+000  
  279.00  0.0000E+000  
  279.50  0.0000E+000  
  280.00  0.0000E+000  
  280.50  0.0000E+000  
  281.00  0.0000E+000  
  281.50  0.0000E+000  
  282.00  0.0000E+000  
  282.50  0.0000E+000  
  283.00  0.0000E+000  
  283.50  0.0000E+000  
  284.00  0.0000E+000  
  284.50  0.0000E+000  
  285.00  0.0000E+000  
  285.50  0.0000E+000  
  286.00  0.0000E+000  
  286.50  0.0000E+000  
  287.00  0.0000E+000  
  287.50  0.0000E+000  
  288.00  0.0000E+000  
  288.50  0.0000E+000  
  289.00  0.0000E+000  
  289.50  0.0000E+000  
  290.00  0.0000E+000  
  290.50  0.0000E+000  
  291.00  0.0000E+000  
  291.50  0.0000E+000  
  292.00  0.0000E+000  
  292.50  0.0000E+000  
  293.00  0.0000E+000  
  293.50  0.0000E+000  
  294.00  0.0000E+000  
  294.50  0.0000E+000  
  295.00  0.0000E+000  
  295.50  0.0000E+000  
  296.00  0.0000E+000  
  296.50  0.0000E+000  
  297.00  0.0000E+000  
  297.50  0.0000E+000  
  298.00  0.0000E+000  
  298.50  0.0000E+000  
  299.00  0.0000E+000  
  299.50  0.0000E+000  
  300.00  0.0000E+000  
  300.50  0.0000E+000  
  301.00  0.0000E+000  
  301.50  0.0000E+000  
  302.00  0.0000E+000  
  302.50  0.0000E+000  
  303.00  0.0000E+000  
  303.50  0.0000E+000  
  304.00  0.0000E+000  
  304.50  0.0000E+000  
  305.00  0.0000E+000  
  305.50  0.0000E+000  
  306.00  0.0000E+000  
  306.50  0.0000E+000  
  307.00  0.0000E+000  
  307.50  0.0000E+000  
  308.00  0.0000E+000  
  308.50  0.0000E+000  
  309.00  0.0000E+000  
  309.50  0.0000E+000  
  310.00  0.0000E+000  
  310.50  0.0000E+000  
  311.00  0.0000E+000  
  311.50  0.0000E+000  
  312.00  8.3973E-006  
  312.50  0.0000E+000  
  313.00  0.0000E+000  
  313.50  0.0000E+000  
  314.00  0.0000E+000  
  314.50  0.0000E+000  
  315.00  0.0000E+000  
  315.50  0.0000E+000  
  316.00  0.0000E+000  
  316.50  0.0000E+000  
  317.00  0.0000E+000  
  317.50  0.0000E+000  
  318.00  0.0000E+000  
  318.50  0.0000E+000  
  319.00  0.0000E+000  
  319.50  0.0000E+000  
  320.00  0.0000E+000  
  320.50  0.0000E+000  
  321.00  0.0000E+000  
  321.50  0.0000E+000  
  322.00  0.0000E+000  
  322.50  0.0000E+000  
  323.00  0.0000E+000  
  323.50  0.0000E+000  
  324.00  0.0000E+000  
  324.50  0.0000E+000  
  325.00  0.0000E+000  
  325.50  0.0000E+000  
  326.00  0.0000E+000  
  326.50  0.0000E+000  
  327.00  0.0000E+000  
  327.50  0.0000E+000  
  328.00  0.0000E+000  
  328.50  0.0000E+000  
  329.00  0.0000E+000  
  329.50  0.0000E+000  
  330.00  0.0000E+000  
  330.50  0.0000E+000  
  331.00  0.0000E+000  
  331.50  0.0000E+000  
  332.00  0.0000E+000  
  332.50  0.0000E+000  
  333.00  0.0000E+000  
  333.50  0.0000E+000  
  334.00  0.0000E+000  
  334.50  0.0000E+000  
  335.00  0.0000E+000  
  335.50  0.0000E+000  
  336.00  0.0000E+000  
  336.50  0.0000E+000  
  337.00  0.0000E+000  
  337.50  0.0000E+000  
  338.00  0.0000E+000  
  338.50  0.0000E+000  
  339.00  0.0000E+000  
  339.50  0.0000E+000  
  340.00  0.0000E+000  
  340.50  0.0000E+000  
  341.00  0.0000E+000  
  341.50  0.0000E+000  
  342.00  0.0000E+000  
  342.50  0.0000E+000  
  343.00  0.0000E+000  
  343.50  0.0000E+000  
  344.00  0.0000E+000  
  344.50  0.0000E+000  
  345.00  0.0000E+000  
  345.50  0.0000E+000  
  346.00  0.0000E+000  
  346.50  0.0000E+000  
  347.00  0.0000E+000  
  347.50  0.0000E+000  
  348.00  0.0000E+000  
  348.50  0.0000E+000  
  349.00  0.0000E+000  
  349.50  0.0000E+000  
  350.00  0.0000E+000  
  350.50  0.0000E+000  
  351.00  0.0000E+000  
  351.50  0.0000E+000  
  352.00  0.0000E+000  
  352.50  0.0000E+000  
  353.00  0.0000E+000  
  353.50  0.0000E+000  
  354.00  0.0000E+000  
  354.50  0.0000E+000  
  355.00  0.0000E+000  
  355.50  0.0000E+000  
  356.00  0.0000E+000  
  356.50  0.0000E+000  
  357.00  0.0000E+000  
  357.50  0.0000E+000  
  358.00  0.0000E+000  
  358.50  0.0000E+000  
  359.00  0.0000E+000  
  359.50  0.0000E+000  
  360.00  0.0000E+000  
  360.50  0.0000E+000  
  361.00  0.0000E+000  
  361.50  0.0000E+000  
  362.00  0.0000E+000  
  362.50  0.0000E+000  
  363.00  0.0000E+000  
  363.50  0.0000E+000  
  364.00  0.0000E+000  
  364.50  0.0000E+000  
  365.00  0.0000E+000  
  365.50  0.0000E+000  
  366.00  0.0000E+000  
  366.50  0.0000E+000  
  367.00  0.0000E+000  
  367.50  0.0000E+000  
  368.00  0.0000E+000  
  368.50  0.0000E+000  
  369.00  0.0000E+000  
  369.50  0.0000E+000  
  370.00  0.0000E+000  
  370.50  0.0000E+000  
  371.00  0.0000E+000  
  371.50  0.0000E+000  
  372.00  0.0000E+000  
  372.50  0.0000E+000  
  373.00  0.0000E+000  
  373.50  0.0000E+000  
  374.00  0.0000E+000  
  374.50  0.0000E+000  
  375.00  0.0000E+000  
  375.50  0.0000E+000  
  376.00  0.0000E+000  
  376.50  0.0000E+000  
  377.00  0.0000E+000  
  377.50  0.0000E+000  
  378.00  0.0000E+000  
  378.50  0.0000E+000  
  379.00  0.0000E+000  
  379.50  0.0000E+000  
  380.00  0.0000E+000  
  380.50  0.0000E+000  
  381.00  0.0000E+000  
  381.50  0.0000E+000  
  382.00  0.0000E+000  
  382.50  0.0000E+000  
  383.00  0.0000E+000  
  383.50  0.0000E+000  
  384.00  0.0000E+000  
  384.50  0.0000E+000  
  385.00  0.0000E+000  
  385.50  0.0000E+000  
  386.00  0.0000E+000  
  386.50  0.0000E+000  
  387.00  0.0000E+000  
  387.50  0.0000E+000  
  388.00  0.0000E+000  
  388.50  0.0000E+000  
  389.00  0.0000E+000  
  389.50  0.0000E+000  
  390.00  0.0000E+000  
  390.50  0.0000E+000  
  391.00  0.0000E+000  
  391.50  0.0000E+000  
  392.00  0.0000E+000  
  392.50  0.0000E+000  
  393.00  0.0000E+000  
  393.50  0.0000E+000  
  394.00  0.0000E+000  
  394.50  0.0000E+000  
  395.00  0.0000E+000  
  395.50  5.1445E-005  
  396.00  5.4673E-005  
  396.50  0.0000E+000  
  397.00  0.0000E+000  
  397.50  0.0000E+000  
  398.00  0.0000E+000  
  398.50  4.0620E-006  
  399.00  4.4843E-004  
  399.50  3.2147E-004  
  400.00  2.0550E-004  
  400.50  4.5077E-005  
  401.00  0.0000E+000  
  401.50  0.0000E+000  
  402.00  0.0000E+000  
  402.50  8.1262E-005  
  403.00  2.6827E-004  
  403.50  5.6160E-004  
  404.00  6.9818E-004  
  404.50  5.8998E-004  
  405.00  4.8254E-004  
  405.50  5.7722E-004  
  406.00  9.6975E-004  
  406.50  1.5174E-003  
  407.00  1.8009E-003  
  407.50  1.9378E-003  
  408.00  1.9547E-003  
  408.50  2.1164E-003  
  409.00  2.1684E-003  
  409.50  2.3250E-003  
  410.00  2.4703E-003  
  410.50  2.5691E-003  
  411.00  2.7912E-003  
  411.50  2.9266E-003  
  412.00  3.0687E-003  
  412.50  3.3862E-003  
  413.00  3.9953E-003  
  413.50  4.5004E-003  
  414.00  5.0526E-003  
  414.50  5.4626E-003  
  415.00  5.9263E-003  
  415.50  6.3679E-003  
  416.00  6.7411E-003  
  416.50  7.2381E-003  
  417.00  7.6608E-003  
  417.50  8.4401E-003  
  418.00  9.3241E-003  
  418.50  1.0216E-002  
  419.00  1.1120E-002  
  419.50  1.2015E-002  
  420.00  1.2996E-002  
  420.50  1.4401E-002  
  421.00  1.5585E-002  
  421.50  1.6628E-002  
  422.00  1.7510E-002  
  422.50  1.8370E-002  
  423.00  1.9746E-002  
  423.50  2.0978E-002  
  424.00  2.2283E-002  
  424.50  2.3380E-002  
  425.00  2.4833E-002  
  425.50  2.6706E-002  
  426.00  2.8459E-002  
  426.50  3.0155E-002  
  427.00  3.1871E-002  
  427.50  3.4130E-002  
  428.00  3.6670E-002  
  428.50  3.9247E-002  
  429.00  4.1609E-002  
  429.50  4.4047E-002  
  430.00  4.6478E-002  
  430.50  4.9323E-002  
  431.00  5.2319E-002  
  431.50  5.5026E-002  
  432.00  5.7681E-002  
  432.50  6.0121E-002  
  433.00  6.2360E-002  
  433.50  6.5327E-002  
  434.00  6.8307E-002  
  434.50  7.1127E-002  
  435.00  7.4522E-002  
  435.50  7.8347E-002  
  436.00  8.2676E-002  
  436.50  8.7172E-002  
  437.00  9.1657E-002  
  437.50  9.6189E-002  
  438.00  1.0075E-001  
  438.50  1.0592E-001  
  439.00  1.1083E-001  
  439.50  1.1588E-001  
  440.00  1.2173E-001  
  440.50  1.2798E-001  
  441.00  1.3457E-001  
  441.50  1.4092E-001  
  442.00  1.4769E-001  
  442.50  1.5420E-001  
  443.00  1.6125E-001  
  443.50  1.6807E-001  
  444.00  1.7433E-001  
  444.50  1.8116E-001  
  445.00  1.8713E-001  
  445.50  1.9290E-001  
  446.00  1.9775E-001  
  446.50  2.0212E-001  
  447.00  2.0644E-001  
  447.50  2.0955E-001  
  448.00  2.1182E-001  
  448.50  2.1250E-001  
  449.00  2.1223E-001  
  449.50  2.1099E-001  
  450.00  2.0956E-001  
  450.50  2.0817E-001  
  451.00  2.0638E-001  
  451.50  2.0278E-001  
  452.00  1.9851E-001  
  452.50  1.9305E-001  
  453.00  1.8807E-001  
  453.50  1.8288E-001  
  454.00  1.7657E-001  
  454.50  1.7072E-001  
  455.00  1.6528E-001  
  455.50  1.6014E-001  
  456.00  1.5471E-001  
  456.50  1.4890E-001  
  457.00  1.4338E-001  
  457.50  1.3899E-001  
  458.00  1.3453E-001  
  458.50  1.3098E-001  
  459.00  1.2747E-001  
  459.50  1.2366E-001  
  460.00  1.1995E-001  
  460.50  1.1632E-001  
  461.00  1.1364E-001  
  461.50  1.1186E-001  
  462.00  1.0988E-001  
  462.50  1.0747E-001  
  463.00  1.0473E-001  
  463.50  1.0235E-001  
  464.00  1.0013E-001  
  464.50  9.7779E-002  
  465.00  9.5636E-002  
  465.50  9.3434E-002  
  466.00  9.1436E-002  
  466.50  8.9759E-002  
  467.00  8.7602E-002  
  467.50  8.5695E-002  
  468.00  8.3552E-002  
  468.50  8.1470E-002  
  469.00  7.9828E-002  
  469.50  7.8036E-002  
  470.00  7.6349E-002  
  470.50  7.4743E-002  
  471.00  7.2737E-002  
  471.50  7.1236E-002  
  472.00  6.9613E-002  
  472.50  6.8045E-002  
  473.00  6.6603E-002  
  473.50  6.5610E-002  
  474.00  6.4960E-002  
  474.50  6.4544E-002  
  475.00  6.3556E-002  
  475.50  6.2609E-002  
  476.00  6.1480E-002  
  476.50  6.0686E-002  
  477.00  6.0215E-002  
  477.50  5.9714E-002  
  478.00  5.9886E-002  
  478.50  5.9910E-002  
  479.00  5.9930E-002  
  479.50  5.9820E-002  
  480.00  5.9687E-002  
  480.50  5.9841E-002  
  481.00  6.0222E-002  
  481.50  6.0712E-002  
  482.00  6.1169E-002  
  482.50  6.1359E-002  
  483.00  6.1564E-002  
  483.50  6.1855E-002  
  484.00  6.2101E-002  
  484.50  6.2459E-002  
  485.00  6.2986E-002  
  485.50  6.3776E-002  
  486.00  6.4708E-002  
  486.50  6.5216E-002  
  487.00  6.5902E-002  
  487.50  6.6702E-002  
  488.00  6.7641E-002  
  488.50  6.8656E-002  
  489.00  6.9872E-002  
  489.50  7.1250E-002  
  490.00  7.2673E-002  
  490.50  7.3891E-002  
  491.00  7.5062E-002  
  491.50  7.6315E-002  
  492.00  7.7448E-002  
  492.50  7.8547E-002  
  493.00  7.9932E-002  
  493.50  8.1512E-002  
  494.00  8.3294E-002  
  494.50  8.5001E-002  
  495.00  8.6605E-002  
  495.50  8.8360E-002  
  496.00  9.0194E-002  
  496.50  9.1775E-002  
  497.00  9.3554E-002  
  497.50  9.5466E-002  
  498.00  9.7454E-002  
  498.50  9.9275E-002  
  499.00  1.0109E-001  
  499.50  1.0310E-001  
  500.00  1.0519E-001  
  500.50  1.0716E-001  
  501.00  1.0875E-001  
  501.50  1.1046E-001  
  502.00  1.1237E-001  
  502.50  1.1445E-001  
  503.00  1.1635E-001  
  503.50  1.1795E-001  
  504.00  1.1948E-001  
  504.50  1.2134E-001  
  505.00  1.2343E-001  
  505.50  1.2563E-001  
  506.00  1.2746E-001  
  506.50  1.2918E-001  
  507.00  1.3103E-001  
  507.50  1.3278E-001  
  508.00  1.3480E-001  
  508.50  1.3654E-001  
  509.00  1.3820E-001  
  509.50  1.4008E-001  
  510.00  1.4167E-001  
  510.50  1.4371E-001  
  511.00  1.4553E-001  
  511.50  1.4717E-001  
  512.00  1.4879E-001  
  512.50  1.5004E-001  
  513.00  1.5137E-001  
  513.50  1.5291E-001  
  514.00  1.5457E-001  
  514.50  1.5636E-001  
  515.00  1.5818E-001  
  515.50  1.5974E-001  
  516.00  1.6136E-001  
  516.50  1.6290E-001  
  517.00  1.6432E-001  
  517.50  1.6602E-001  
  518.00  1.6773E-001  
  518.50  1.6931E-001  
  519.00  1.7063E-001  
  519.50  1.7151E-001  
  520.00  1.7267E-001  
  520.50  1.7395E-001  
  521.00  1.7547E-001  
  521.50  1.7690E-001  
  522.00  1.7803E-001  
  522.50  1.7932E-001  
  523.00  1.8077E-001  
  523.50  1.8249E-001  
  524.00  1.8441E-001  
  524.50  1.8602E-001  
  525.00  1.8726E-001  
  525.50  1.8811E-001  
  526.00  1.8884E-001  
  526.50  1.8966E-001  
  527.00  1.9126E-001  
  527.50  1.9282E-001  
  528.00  1.9458E-001  
  528.50  1.9618E-001  
  529.00  1.9741E-001  
  529.50  1.9857E-001  
  530.00  1.9945E-001  
  530.50  2.0073E-001  
  531.00  2.0224E-001  
  531.50  2.0350E-001  
  532.00  2.0480E-001  
  532.50  2.0576E-001  
  533.00  2.0706E-001  
  533.50  2.0816E-001  
  534.00  2.0948E-001  
  534.50  2.1074E-001  
  535.00  2.1253E-001  
  535.50  2.1407E-001  
  536.00  2.1543E-001  
  536.50  2.1676E-001  
  537.00  2.1822E-001  
  537.50  2.1971E-001  
  538.00  2.2100E-001  
  538.50  2.2243E-001  
  539.00  2.2361E-001  
  539.50  2.2510E-001  
  540.00  2.2615E-001  
  540.50  2.2744E-001  
  541.00  2.2876E-001  
  541.50  2.3004E-001  
  542.00  2.3161E-001  
  542.50  2.3305E-001  
  543.00  2.3484E-001  
  543.50  2.3617E-001  
  544.00  2.3769E-001  
  544.50  2.3895E-001  
  545.00  2.4061E-001  
  545.50  2.4209E-001  
  546.00  2.4349E-001  
  546.50  2.4485E-001  
  547.00  2.4621E-001  
  547.50  2.4793E-001  
  548.00  2.4934E-001  
  548.50  2.5089E-001  
  549.00  2.5266E-001  
  549.50  2.5427E-001  
  550.00  2.5578E-001  
  550.50  2.5701E-001  
  551.00  2.5841E-001  
  551.50  2.5973E-001  
  552.00  2.6093E-001  
  552.50  2.6252E-001  
  553.00  2.6395E-001  
  553.50  2.6583E-001  
  554.00  2.6758E-001  
  554.50  2.6971E-001  
  555.00  2.7171E-001  
  555.50  2.7322E-001  
  556.00  2.7479E-001  
  556.50  2.7616E-001  
  557.00  2.7743E-001  
  557.50  2.7887E-001  
  558.00  2.8052E-001  
  558.50  2.8234E-001  
  559.00  2.8430E-001  
  559.50  2.8563E-001  
  560.00  2.8731E-001  
  560.50  2.8920E-001  
  561.00  2.9113E-001  
  561.50  2.9251E-001  
  562.00  2.9342E-001  
  562.50  2.9478E-001  
  563.00  2.9672E-001  
  563.50  2.9912E-001  
  564.00  3.0082E-001  
  564.50  3.0216E-001  
  565.00  3.0353E-001  
  565.50  3.0484E-001  
  566.00  3.0607E-001  
  566.50  3.0721E-001  
  567.00  3.0799E-001  
  567.50  3.0914E-001  
  568.00  3.1081E-001  
  568.50  3.1293E-001  
  569.00  3.1497E-001  
  569.50  3.1641E-001  
  570.00  3.1743E-001  
  570.50  3.1853E-001  
  571.00  3.2025E-001  
  571.50  3.2161E-001  
  572.00  3.2266E-001  
  572.50  3.2368E-001  
  573.00  3.2507E-001  
  573.50  3.2647E-001  
  574.00  3.2805E-001  
  574.50  3.2925E-001  
  575.00  3.3090E-001  
  575.50  3.3236E-001  
  576.00  3.3379E-001  
  576.50  3.3512E-001  
  577.00  3.3639E-001  
  577.50  3.3797E-001  
  578.00  3.3913E-001  
  578.50  3.4062E-001  
  579.00  3.4180E-001  
  579.50  3.4305E-001  
  580.00  3.4447E-001  
  580.50  3.4588E-001  
  581.00  3.4722E-001  
  581.50  3.4843E-001  
  582.00  3.4907E-001  
  582.50  3.4974E-001  
  583.00  3.5065E-001  
  583.50  3.5183E-001  
  584.00  3.5286E-001  
  584.50  3.5351E-001  
  585.00  3.5388E-001  
  585.50  3.5432E-001  
  586.00  3.5502E-001  
  586.50  3.5593E-001  
  587.00  3.5705E-001  
  587.50  3.5853E-001  
  588.00  3.5957E-001  
  588.50  3.6054E-001  
  589.00  3.6130E-001  
  589.50  3.6244E-001  
  590.00  3.6370E-001  
  590.50  3.6448E-001  
  591.00  3.6458E-001  
  591.50  3.6509E-001  
  592.00  3.6569E-001  
  592.50  3.6661E-001  
  593.00  3.6718E-001  
  593.50  3.6710E-001  
  594.00  3.6768E-001  
  594.50  3.6841E-001  
  595.00  3.6946E-001  
  595.50  3.7006E-001  
  596.00  3.7070E-001  
  596.50  3.7089E-001  
  597.00  3.7118E-001  
  597.50  3.7074E-001  
  598.00  3.7071E-001  
  598.50  3.7091E-001  
  599.00  3.7111E-001  
  599.50  3.7153E-001  
  600.00  3.7200E-001  
  600.50  3.7161E-001  
  601.00  3.7161E-001  
  601.50  3.7096E-001  
  602.00  3.7132E-001  
  602.50  3.7150E-001  
  603.00  3.7201E-001  
  603.50  3.7220E-001  
  604.00  3.7213E-001  
  604.50  3.7193E-001  
  605.00  3.7178E-001  
  605.50  3.7193E-001  
  606.00  3.7180E-001  
  606.50  3.7137E-001  
  607.00  3.7065E-001  
  607.50  3.6969E-001  
  608.00  3.6892E-001  
  608.50  3.6863E-001  
  609.00  3.6813E-001  
  609.50  3.6791E-001  
  610.00  3.6726E-001  
  610.50  3.6661E-001  
  611.00  3.6643E-001  
  611.50  3.6651E-001  
  612.00  3.6701E-001  
  612.50  3.6718E-001  
  613.00  3.6631E-001  
  613.50  3.6519E-001  
  614.00  3.6308E-001  
  614.50  3.6109E-001  
  615.00  3.5949E-001  
  615.50  3.5871E-001  
  616.00  3.5867E-001  
  616.50  3.5804E-001  
  617.00  3.5689E-001  
  617.50  3.5561E-001  
  618.00  3.5426E-001  
  618.50  3.5391E-001  
  619.00  3.5301E-001  
  619.50  3.5228E-001  
  620.00  3.5081E-001  
  620.50  3.4921E-001  
  621.00  3.4756E-001  
  621.50  3.4561E-001  
  622.00  3.4494E-001  
  622.50  3.4411E-001  
  623.00  3.4311E-001  
  623.50  3.4147E-001  
  624.00  3.4052E-001  
  624.50  3.3975E-001  
  625.00  3.3890E-001  
  625.50  3.3703E-001  
  626.00  3.3479E-001  
  626.50  3.3317E-001  
  627.00  3.3174E-001  
  627.50  3.3045E-001  
  628.00  3.2872E-001  
  628.50  3.2651E-001  
  629.00  3.2481E-001  
  629.50  3.2315E-001  
  630.00  3.2228E-001  
  630.50  3.2089E-001  
  631.00  3.1926E-001  
  631.50  3.1710E-001  
  632.00  3.1542E-001  
  632.50  3.1397E-001  
  633.00  3.1299E-001  
  633.50  3.1231E-001  
  634.00  3.1083E-001  
  634.50  3.0857E-001  
  635.00  3.0599E-001  
  635.50  3.0410E-001  
  636.00  3.0298E-001  
  636.50  3.0156E-001  
  637.00  2.9951E-001  
  637.50  2.9718E-001  
  638.00  2.9500E-001  
  638.50  2.9333E-001  
  639.00  2.9146E-001  
  639.50  2.8985E-001  
  640.00  2.8792E-001  
  640.50  2.8588E-001  
  641.00  2.8323E-001  
  641.50  2.8078E-001  
  642.00  2.7852E-001  
  642.50  2.7685E-001  
  643.00  2.7490E-001  
  643.50  2.7307E-001  
  644.00  2.7108E-001  
  644.50  2.6900E-001  
  645.00  2.6718E-001  
  645.50  2.6497E-001  
  646.00  2.6319E-001  
  646.50  2.6069E-001  
  647.00  2.5863E-001  
  647.50  2.5639E-001  
  648.00  2.5459E-001  
  648.50  2.5239E-001  
  649.00  2.5023E-001  
  649.50  2.4809E-001  
  650.00  2.4636E-001  
  650.50  2.4451E-001  
  651.00  2.4242E-001  
  651.50  2.4021E-001  
  652.00  2.3835E-001  
  652.50  2.3602E-001  
  653.00  2.3332E-001  
  653.50  2.3044E-001  
  654.00  2.2823E-001  
  654.50  2.2646E-001  
  655.00  2.2476E-001  
  655.50  2.2294E-001  
  656.00  2.2123E-001  
  656.50  2.1960E-001  
  657.00  2.1787E-001  
  657.50  2.1596E-001  
  658.00  2.1288E-001  
  658.50  2.1045E-001  
  659.00  2.0810E-001  
  659.50  2.0677E-001  
  660.00  2.0451E-001  
  660.50  2.0229E-001  
  661.00  2.0013E-001  
  661.50  1.9834E-001  
  662.00  1.9609E-001  
  662.50  1.9403E-001  
  663.00  1.9210E-001  
  663.50  1.9026E-001  
  664.00  1.8822E-001  
  664.50  1.8595E-001  
  665.00  1.8328E-001  
  665.50  1.8049E-001  
  666.00  1.7815E-001  
  666.50  1.7711E-001  
  667.00  1.7576E-001  
  667.50  1.7424E-001  
  668.00  1.7208E-001  
  668.50  1.6991E-001  
  669.00  1.6788E-001  
  669.50  1.6596E-001  
  670.00  1.6452E-001  
  670.50  1.6271E-001  
  671.00  1.6101E-001  
  671.50  1.5920E-001  
  672.00  1.5743E-001  
  672.50  1.5529E-001  
  673.00  1.5349E-001  
  673.50  1.5214E-001  
  674.00  1.5053E-001  
  674.50  1.4842E-001  
  675.00  1.4617E-001  
  675.50  1.4435E-001  
  676.00  1.4276E-001  
  676.50  1.4118E-001  
  677.00  1.3999E-001  
  677.50  1.3883E-001  
  678.00  1.3730E-001  
  678.50  1.3514E-001  
  679.00  1.3282E-001  
  679.50  1.3119E-001  
