
# From lspdd.org
# 
# Name: HM Philips Wallpack Industriel
# Indice spectral Valeur 
# MSI 0.56 
# SLI 0.63 
# IPI 0.62 
# Pourcentage de bleu 32.8 
# Caractéristique Valeur 
# CCT calculée (K) 4082 
# CCT du fabricant (K) 4000 
# Tension (V) 120 
# Puissance (W) 250.0 
# Efficacité lumineuse (Lum/W) 100.0 
#
# Image: '/app/system/img_2s/2656/medium_image2.JPG?1432223142'
# Image: '/app/system/img_1s/2656/medium_image1.JPG?1432223126'
# 

  273.00  0.0000E+000  
  273.50  0.0000E+000  
  274.00  0.0000E+000  
  274.50  0.0000E+000  
  275.00  0.0000E+000  
  275.50  0.0000E+000  
  276.00  0.0000E+000  
  276.50  0.0000E+000  
  277.00  0.0000E+000  
  277.50  0.0000E+000  
  278.00  0.0000E+000  
  278.50  0.0000E+000  
  279.00  0.0000E+000  
  279.50  0.0000E+000  
  280.00  0.0000E+000  
  280.50  0.0000E+000  
  281.00  0.0000E+000  
  281.50  0.0000E+000  
  282.00  0.0000E+000  
  282.50  0.0000E+000  
  283.00  0.0000E+000  
  283.50  0.0000E+000  
  284.00  0.0000E+000  
  284.50  0.0000E+000  
  285.00  0.0000E+000  
  285.50  0.0000E+000  
  286.00  0.0000E+000  
  286.50  0.0000E+000  
  287.00  0.0000E+000  
  287.50  0.0000E+000  
  288.00  0.0000E+000  
  288.50  0.0000E+000  
  289.00  0.0000E+000  
  289.50  0.0000E+000  
  290.00  0.0000E+000  
  290.50  0.0000E+000  
  291.00  0.0000E+000  
  291.50  0.0000E+000  
  292.00  0.0000E+000  
  292.50  0.0000E+000  
  293.00  0.0000E+000  
  293.50  0.0000E+000  
  294.00  0.0000E+000  
  294.50  0.0000E+000  
  295.00  0.0000E+000  
  295.50  0.0000E+000  
  296.00  0.0000E+000  
  296.50  0.0000E+000  
  297.00  0.0000E+000  
  297.50  0.0000E+000  
  298.00  0.0000E+000  
  298.50  0.0000E+000  
  299.00  0.0000E+000  
  299.50  0.0000E+000  
  300.00  0.0000E+000  
  300.50  0.0000E+000  
  301.00  0.0000E+000  
  301.50  2.9613E-005  
  302.00  2.9902E-004  
  302.50  7.2392E-004  
  303.00  1.0610E-003  
  303.50  9.3996E-004  
  304.00  1.0058E-003  
  304.50  1.2547E-003  
  305.00  9.0065E-004  
  305.50  6.6530E-004  
  306.00  1.9054E-004  
  306.50  1.2968E-004  
  307.00  5.7194E-004  
  307.50  9.3317E-004  
  308.00  1.3255E-003  
  308.50  1.6579E-003  
  309.00  1.8209E-003  
  309.50  1.7074E-003  
  310.00  1.4568E-003  
  310.50  9.1143E-004  
  311.00  2.7679E-004  
  311.50  4.1268E-004  
  312.00  6.1448E-004  
  312.50  7.4515E-004  
  313.00  1.0572E-003  
  313.50  9.0283E-004  
  314.00  6.6141E-004  
  314.50  6.4366E-004  
  315.00  4.3080E-004  
  315.50  5.5584E-004  
  316.00  6.4720E-004  
  316.50  6.5672E-004  
  317.00  7.7326E-004  
  317.50  4.2506E-004  
  318.00  3.6898E-004  
  318.50  4.7054E-004  
  319.00  7.6545E-004  
  319.50  9.1584E-004  
  320.00  8.0937E-004  
  320.50  5.5577E-004  
  321.00  3.1704E-004  
  321.50  2.2212E-004  
  322.00  1.1801E-004  
  322.50  0.0000E+000  
  323.00  0.0000E+000  
  323.50  0.0000E+000  
  324.00  1.1402E-004  
  324.50  7.5459E-004  
  325.00  1.2103E-003  
  325.50  1.0607E-003  
  326.00  6.0426E-004  
  326.50  2.9115E-004  
  327.00  4.8202E-004  
  327.50  1.0081E-003  
  328.00  1.4656E-003  
  328.50  1.6030E-003  
  329.00  1.4968E-003  
  329.50  1.5366E-003  
  330.00  1.5603E-003  
  330.50  1.2572E-003  
  331.00  7.0849E-004  
  331.50  1.0812E-004  
  332.00  1.4467E-004  
  332.50  6.4403E-004  
  333.00  1.1754E-003  
  333.50  1.6545E-003  
  334.00  2.1084E-003  
  334.50  2.7561E-003  
  335.00  3.5849E-003  
  335.50  3.9453E-003  
  336.00  3.8750E-003  
  336.50  3.2592E-003  
  337.00  2.4308E-003  
  337.50  1.7595E-003  
  338.00  1.4566E-003  
  338.50  9.9945E-004  
  339.00  6.1936E-004  
  339.50  6.4373E-004  
  340.00  7.4552E-004  
  340.50  1.0175E-003  
  341.00  1.1393E-003  
  341.50  1.0588E-003  
  342.00  1.1077E-003  
  342.50  1.4418E-003  
  343.00  1.5746E-003  
  343.50  1.7012E-003  
  344.00  1.9561E-003  
  344.50  2.3889E-003  
  345.00  2.8851E-003  
  345.50  2.9290E-003  
  346.00  2.5438E-003  
  346.50  2.4414E-003  
  347.00  2.3786E-003  
  347.50  2.3721E-003  
  348.00  2.2370E-003  
  348.50  2.0993E-003  
  349.00  2.2766E-003  
  349.50  2.5889E-003  
  350.00  2.3890E-003  
  350.50  1.9294E-003  
  351.00  1.6617E-003  
  351.50  1.3656E-003  
  352.00  1.7710E-003  
  352.50  2.5069E-003  
  353.00  3.2933E-003  
  353.50  3.9772E-003  
  354.00  4.2515E-003  
  354.50  4.5514E-003  
  355.00  5.5024E-003  
  355.50  7.5469E-003  
  356.00  1.0867E-002  
  356.50  1.4360E-002  
  357.00  1.6773E-002  
  357.50  1.7080E-002  
  358.00  1.5891E-002  
  358.50  1.3280E-002  
  359.00  1.1030E-002  
  359.50  9.3688E-003  
  360.00  9.6458E-003  
  360.50  1.1153E-002  
  361.00  1.2758E-002  
  361.50  1.4078E-002  
  362.00  1.4627E-002  
  362.50  1.5997E-002  
  363.00  2.0815E-002  
  363.50  3.1515E-002  
  364.00  4.6780E-002  
  364.50  5.9942E-002  
  365.00  6.5825E-002  
  365.50  6.0733E-002  
  366.00  4.6481E-002  
  366.50  3.1487E-002  
  367.00  1.9471E-002  
  367.50  1.2121E-002  
  368.00  8.0156E-003  
  368.50  6.0439E-003  
  369.00  5.2911E-003  
  369.50  4.9612E-003  
  370.00  4.6461E-003  
  370.50  4.2017E-003  
  371.00  3.8164E-003  
  371.50  3.4548E-003  
  372.00  3.1101E-003  
  372.50  2.7893E-003  
  373.00  2.3085E-003  
  373.50  2.1141E-003  
  374.00  2.1446E-003  
  374.50  2.2543E-003  
  375.00  2.5460E-003  
  375.50  2.8971E-003  
  376.00  2.9692E-003  
  376.50  2.7626E-003  
  377.00  2.4436E-003  
  377.50  2.2798E-003  
  378.00  2.6159E-003  
  378.50  3.2900E-003  
  379.00  3.4987E-003  
  379.50  3.3694E-003  
  380.00  3.0361E-003  
  380.50  2.8820E-003  
  381.00  3.2084E-003  
  381.50  3.6832E-003  
  382.00  4.0220E-003  
  382.50  3.9555E-003  
  383.00  3.7272E-003  
  383.50  3.8787E-003  
  384.00  4.1847E-003  
  384.50  4.5490E-003  
  385.00  4.9072E-003  
  385.50  5.1651E-003  
  386.00  5.2572E-003  
  386.50  5.3676E-003  
  387.00  5.1594E-003  
  387.50  4.9471E-003  
  388.00  5.2117E-003  
  388.50  6.4081E-003  
  389.00  1.0667E-002  
  389.50  2.1164E-002  
  390.00  3.5964E-002  
  390.50  4.9717E-002  
  391.00  5.3861E-002  
  391.50  4.8694E-002  
  392.00  3.8082E-002  
  392.50  2.9098E-002  
  393.00  2.3103E-002  
  393.50  1.8631E-002  
  394.00  1.4390E-002  
  394.50  1.0416E-002  
  395.00  7.8632E-003  
  395.50  6.3613E-003  
  396.00  5.5504E-003  
  396.50  5.2212E-003  
  397.00  5.2747E-003  
  397.50  5.8502E-003  
  398.00  7.9350E-003  
  398.50  1.1233E-002  
  399.00  1.4704E-002  
  399.50  1.6832E-002  
  400.00  1.8391E-002  
  400.50  2.4032E-002  
  401.00  3.6412E-002  
  401.50  5.2581E-002  
  402.00  6.3680E-002  
  402.50  6.5605E-002  
  403.00  6.2779E-002  
  403.50  6.5550E-002  
  404.00  7.4845E-002  
  404.50  8.1221E-002  
  405.00  7.6705E-002  
  405.50  6.0023E-002  
  406.00  4.2230E-002  
  406.50  3.2663E-002  
  407.00  3.3296E-002  
  407.50  3.8337E-002  
  408.00  4.1072E-002  
  408.50  3.8104E-002  
  409.00  3.0444E-002  
  409.50  2.1931E-002  
  410.00  1.5951E-002  
  410.50  1.2737E-002  
  411.00  1.1655E-002  
  411.50  1.1839E-002  
  412.00  1.3787E-002  
  412.50  1.7361E-002  
  413.00  2.1766E-002  
  413.50  2.6121E-002  
  414.00  2.9237E-002  
  414.50  3.1459E-002  
  415.00  3.3234E-002  
  415.50  3.4532E-002  
  416.00  3.4097E-002  
  416.50  3.0729E-002  
  417.00  2.5306E-002  
  417.50  1.9922E-002  
  418.00  1.5980E-002  
  418.50  1.4222E-002  
  419.00  1.3481E-002  
  419.50  1.3523E-002  
  420.00  1.4452E-002  
  420.50  1.5823E-002  
  421.00  1.7117E-002  
  421.50  1.8658E-002  
  422.00  2.1009E-002  
  422.50  2.5377E-002  
  423.00  3.2903E-002  
  423.50  4.2481E-002  
  424.00  4.9522E-002  
  424.50  4.9273E-002  
  425.00  4.1132E-002  
  425.50  2.9850E-002  
  426.00  2.0867E-002  
  426.50  1.5742E-002  
  427.00  1.4094E-002  
  427.50  1.3920E-002  
  428.00  1.4393E-002  
  428.50  1.4969E-002  
  429.00  1.5495E-002  
  429.50  1.7900E-002  
  430.00  2.4064E-002  
  430.50  3.4393E-002  
  431.00  4.5909E-002  
  431.50  5.3096E-002  
  432.00  5.1730E-002  
  432.50  4.3931E-002  
  433.00  3.5117E-002  
  433.50  3.3008E-002  
  434.00  4.5394E-002  
  434.50  8.0630E-002  
  435.00  1.2658E-001  
  435.50  1.5850E-001  
  436.00  1.5593E-001  
  436.50  1.2579E-001  
  437.00  8.5817E-002  
  437.50  5.5970E-002  
  438.00  3.9087E-002  
  438.50  3.1173E-002  
  439.00  2.8335E-002  
  439.50  2.8468E-002  
  440.00  2.8845E-002  
  440.50  2.8141E-002  
  441.00  2.6345E-002  
  441.50  2.3883E-002  
  442.00  2.0643E-002  
  442.50  1.7228E-002  
  443.00  1.4395E-002  
  443.50  1.2797E-002  
  444.00  1.2191E-002  
  444.50  1.1523E-002  
  445.00  1.0842E-002  
  445.50  1.0405E-002  
  446.00  1.0107E-002  
  446.50  1.0309E-002  
  447.00  1.0405E-002  
  447.50  1.0151E-002  
  448.00  9.9266E-003  
  448.50  9.9631E-003  
  449.00  1.0045E-002  
  449.50  1.0130E-002  
  450.00  9.9469E-003  
  450.50  9.5141E-003  
  451.00  9.3897E-003  
  451.50  9.8012E-003  
  452.00  1.0219E-002  
  452.50  1.0869E-002  
  453.00  1.1996E-002  
  453.50  1.3779E-002  
  454.00  1.5359E-002  
  454.50  1.6286E-002  
  455.00  1.6033E-002  
  455.50  1.5326E-002  
  456.00  1.4985E-002  
  456.50  1.5179E-002  
  457.00  1.5249E-002  
  457.50  1.4991E-002  
  458.00  1.4171E-002  
  458.50  1.3831E-002  
  459.00  1.4187E-002  
  459.50  1.5034E-002  
  460.00  1.5589E-002  
  460.50  1.5119E-002  
  461.00  1.3609E-002  
  461.50  1.1234E-002  
  462.00  9.4182E-003  
  462.50  8.2761E-003  
  463.00  8.2726E-003  
  463.50  8.5665E-003  
  464.00  8.8737E-003  
  464.50  9.0938E-003  
  465.00  9.7076E-003  
  465.50  1.1249E-002  
  466.00  1.3142E-002  
  466.50  1.4624E-002  
  467.00  1.4800E-002  
  467.50  1.3988E-002  
  468.00  1.2698E-002  
  468.50  1.1783E-002  
  469.00  1.2262E-002  
  469.50  1.4472E-002  
  470.00  1.8796E-002  
  470.50  2.3541E-002  
  471.00  2.8671E-002  
  471.50  3.7683E-002  
  472.00  5.7056E-002  
  472.50  8.8886E-002  
  473.00  1.2450E-001  
  473.50  1.4682E-001  
  474.00  1.4520E-001  
  474.50  1.1704E-001  
  475.00  8.0241E-002  
  475.50  4.9130E-002  
  476.00  2.9996E-002  
  476.50  2.3002E-002  
  477.00  2.3060E-002  
  477.50  2.5151E-002  
  478.00  2.5327E-002  
  478.50  2.2432E-002  
  479.00  1.7904E-002  
  479.50  1.3587E-002  
  480.00  1.0842E-002  
  480.50  9.2515E-003  
  481.00  9.3375E-003  
  481.50  1.0955E-002  
  482.00  1.4215E-002  
  482.50  1.8915E-002  
  483.00  2.3595E-002  
  483.50  2.6322E-002  
  484.00  2.6448E-002  
  484.50  2.3413E-002  
  485.00  1.9064E-002  
  485.50  1.4787E-002  
  486.00  1.1439E-002  
  486.50  1.0064E-002  
  487.00  1.0280E-002  
  487.50  1.1328E-002  
  488.00  1.2033E-002  
  488.50  1.1800E-002  
  489.00  1.1345E-002  
  489.50  1.1409E-002  
  490.00  1.2998E-002  
  490.50  1.5010E-002  
  491.00  1.6207E-002  
  491.50  1.6122E-002  
  492.00  1.5152E-002  
  492.50  1.4452E-002  
  493.00  1.4527E-002  
  493.50  1.5213E-002  
  494.00  1.6524E-002  
  494.50  1.7693E-002  
  495.00  1.8017E-002  
  495.50  1.7010E-002  
  496.00  1.6144E-002  
  496.50  1.8171E-002  
  497.00  2.2928E-002  
  497.50  2.8666E-002  
  498.00  3.1869E-002  
  498.50  3.0402E-002  
  499.00  2.5789E-002  
  499.50  1.9799E-002  
  500.00  1.5172E-002  
  500.50  1.4210E-002  
  501.00  1.6670E-002  
  501.50  2.0901E-002  
  502.00  2.4278E-002  
  502.50  2.5111E-002  
  503.00  2.2852E-002  
  503.50  1.8670E-002  
  504.00  1.4604E-002  
  504.50  1.3070E-002  
  505.00  1.7702E-002  
  505.50  2.9772E-002  
  506.00  5.0843E-002  
  506.50  8.2644E-002  
  507.00  1.3216E-001  
  507.50  1.9014E-001  
  508.00  2.3022E-001  
  508.50  2.3396E-001  
  509.00  1.9508E-001  
  509.50  1.4214E-001  
  510.00  9.7917E-002  
  510.50  6.7569E-002  
  511.00  4.8065E-002  
  511.50  3.4100E-002  
  512.00  2.3971E-002  
  512.50  1.5895E-002  
  513.00  1.0688E-002  
  513.50  8.1966E-003  
  514.00  7.2976E-003  
  514.50  7.0597E-003  
  515.00  6.8097E-003  
  515.50  6.3445E-003  
  516.00  5.7562E-003  
  516.50  5.1486E-003  
  517.00  4.8038E-003  
  517.50  4.7693E-003  
  518.00  4.9056E-003  
  518.50  5.1170E-003  
  519.00  5.8319E-003  
  519.50  8.1382E-003  
  520.00  1.2348E-002  
  520.50  1.7483E-002  
  521.00  2.1083E-002  
  521.50  2.0994E-002  
  522.00  1.7693E-002  
  522.50  1.3144E-002  
  523.00  9.8023E-003  
  523.50  8.4453E-003  
  524.00  8.6521E-003  
  524.50  1.0426E-002  
  525.00  1.2828E-002  
  525.50  1.4391E-002  
  526.00  1.3758E-002  
  526.50  1.1185E-002  
  527.00  9.5187E-003  
  527.50  1.0567E-002  
  528.00  1.2840E-002  
  528.50  1.4011E-002  
  529.00  1.3336E-002  
  529.50  1.1536E-002  
  530.00  1.0013E-002  
  530.50  9.0811E-003  
  531.00  8.5035E-003  
  531.50  8.7670E-003  
  532.00  1.0518E-002  
  532.50  1.5029E-002  
  533.00  2.3750E-002  
  533.50  3.8508E-002  
  534.00  5.7336E-002  
  534.50  7.3840E-002  
  535.00  7.8983E-002  
  535.50  6.8692E-002  
  536.00  5.0763E-002  
  536.50  3.5746E-002  
  537.00  2.8604E-002  
  537.50  2.7694E-002  
  538.00  2.9468E-002  
  538.50  3.1856E-002  
  539.00  3.1900E-002  
  539.50  2.7622E-002  
  540.00  2.0409E-002  
  540.50  1.4658E-002  
  541.00  1.2906E-002  
  541.50  1.4100E-002  
  542.00  1.6923E-002  
  542.50  2.1016E-002  
  543.00  2.7067E-002  
  543.50  3.5867E-002  
  544.00  5.6309E-002  
  544.50  1.0176E-001  
  545.00  1.8146E-001  
  545.50  2.6205E-001  
  546.00  2.8737E-001  
  546.50  2.5272E-001  
  547.00  1.8631E-001  
  547.50  1.3567E-001  
  548.00  1.1073E-001  
  548.50  8.8687E-002  
  549.00  6.1295E-002  
  549.50  3.8570E-002  
  550.00  3.2726E-002  
  550.50  4.4488E-002  
  551.00  6.5308E-002  
  551.50  8.0169E-002  
  552.00  7.8922E-002  
  552.50  6.2588E-002  
  553.00  4.1833E-002  
  553.50  2.6935E-002  
  554.00  1.9422E-002  
  554.50  1.7023E-002  
  555.00  1.6404E-002  
  555.50  1.6082E-002  
  556.00  1.5678E-002  
  556.50  1.4390E-002  
  557.00  1.2777E-002  
  557.50  1.1971E-002  
  558.00  1.3007E-002  
  558.50  1.5108E-002  
  559.00  1.6136E-002  
  559.50  1.4986E-002  
  560.00  1.2415E-002  
  560.50  1.0141E-002  
  561.00  8.9850E-003  
  561.50  8.8346E-003  
  562.00  9.3210E-003  
  562.50  1.0212E-002  
  563.00  1.1450E-002  
  563.50  1.3323E-002  
  564.00  1.5847E-002  
  564.50  1.8618E-002  
  565.00  2.3233E-002  
  565.50  3.5092E-002  
  566.00  5.8261E-002  
  566.50  8.7598E-002  
  567.00  1.1302E-001  
  567.50  1.2896E-001  
  568.00  1.3838E-001  
  568.50  1.4183E-001  
  569.00  1.4065E-001  
  569.50  1.3721E-001  
  570.00  1.3650E-001  
  570.50  1.3707E-001  
  571.00  1.2916E-001  
  571.50  1.0873E-001  
  572.00  7.9611E-002  
  572.50  5.0998E-002  
  573.00  3.1116E-002  
  573.50  1.9771E-002  
  574.00  1.5957E-002  
  574.50  1.7375E-002  
  575.00  2.8341E-002  
  575.50  5.4522E-002  
  576.00  9.2071E-002  
  576.50  1.2210E-001  
  577.00  1.3163E-001  
  577.50  1.2582E-001  
  578.00  1.2406E-001  
  578.50  1.3008E-001  
  579.00  1.2599E-001  
  579.50  1.0091E-001  
  580.00  6.5614E-002  
  580.50  3.6589E-002  
  581.00  2.1278E-002  
  581.50  1.4166E-002  
  582.00  1.1278E-002  
  582.50  9.7008E-003  
  583.00  8.8496E-003  
  583.50  8.4764E-003  
  584.00  8.3559E-003  
  584.50  8.4669E-003  
  585.00  8.8452E-003  
  585.50  1.0017E-002  
  586.00  1.2751E-002  
  586.50  2.2269E-002  
  587.00  5.0667E-002  
  587.50  1.1688E-001  
  588.00  2.2581E-001  
  588.50  3.5458E-001  
  589.00  4.5104E-001  
  589.50  4.8383E-001  
  590.00  4.3780E-001  
  590.50  3.5239E-001  
  591.00  2.6336E-001  
  591.50  1.9555E-001  
  592.00  1.5050E-001  
  592.50  1.2255E-001  
  593.00  1.0311E-001  
  593.50  8.9573E-002  
  594.00  7.9299E-002  
  594.50  7.1544E-002  
  595.00  6.5610E-002  
  595.50  6.1523E-002  
  596.00  5.8897E-002  
  596.50  5.6057E-002  
  597.00  5.2072E-002  
  597.50  4.7993E-002  
  598.00  4.5069E-002  
  598.50  4.2824E-002  
  599.00  4.0092E-002  
  599.50  3.6312E-002  
  600.00  3.2610E-002  
  600.50  2.9929E-002  
  601.00  2.8671E-002  
  601.50  2.8847E-002  
  602.00  2.9562E-002  
  602.50  2.9418E-002  
  603.00  2.7872E-002  
  603.50  2.5381E-002  
  604.00  2.3215E-002  
  604.50  2.1608E-002  
  605.00  2.0493E-002  
  605.50  1.9500E-002  
  606.00  1.8669E-002  
  606.50  1.8091E-002  
  607.00  1.7467E-002  
  607.50  1.6924E-002  
  608.00  1.6145E-002  
  608.50  1.5419E-002  
  609.00  1.5235E-002  
  609.50  1.5585E-002  
  610.00  1.6020E-002  
  610.50  1.5743E-002  
  611.00  1.4979E-002  
  611.50  1.4162E-002  
  612.00  1.3620E-002  
  612.50  1.3311E-002  
  613.00  1.3574E-002  
  613.50  1.4585E-002  
  614.00  1.6366E-002  
  614.50  1.7977E-002  
  615.00  1.9045E-002  
  615.50  1.8730E-002  
  616.00  1.7512E-002  
  616.50  1.5358E-002  
  617.00  1.3397E-002  
  617.50  1.2204E-002  
  618.00  1.2971E-002  
  618.50  1.5479E-002  
  619.00  1.9733E-002  
  619.50  2.7841E-002  
  620.00  4.0328E-002  
  620.50  5.3590E-002  
  621.00  5.7204E-002  
  621.50  4.8648E-002  
  622.00  3.5115E-002  
  622.50  3.1813E-002  
  623.00  4.3404E-002  
  623.50  6.0401E-002  
  624.00  6.9324E-002  
  624.50  6.7527E-002  
  625.00  6.2921E-002  
  625.50  5.9747E-002  
  626.00  5.4483E-002  
  626.50  4.5751E-002  
  627.00  3.7107E-002  
  627.50  3.1959E-002  
  628.00  2.8338E-002  
  628.50  2.6102E-002  
  629.00  3.1343E-002  
  629.50  4.8230E-002  
  630.00  7.0359E-002  
  630.50  7.9731E-002  
  631.00  6.8232E-002  
  631.50  4.4534E-002  
  632.00  2.4457E-002  
  632.50  1.4483E-002  
  633.00  1.1150E-002  
  633.50  1.0557E-002  
  634.00  1.1167E-002  
  634.50  1.1516E-002  
  635.00  1.1042E-002  
  635.50  1.0107E-002  
  636.00  9.9206E-003  
  636.50  1.2342E-002  
  637.00  1.7270E-002  
  637.50  2.1675E-002  
  638.00  2.1834E-002  
  638.50  1.7801E-002  
  639.00  1.2795E-002  
  639.50  1.0795E-002  
  640.00  1.3199E-002  
  640.50  1.8714E-002  
  641.00  2.3514E-002  
  641.50  2.3567E-002  
  642.00  1.8745E-002  
  642.50  1.2854E-002  
  643.00  9.2201E-003  
  643.50  8.2738E-003  
  644.00  8.3820E-003  
  644.50  8.3255E-003  
  645.00  8.0127E-003  
  645.50  7.5314E-003  
  646.00  7.1537E-003  
  646.50  6.7399E-003  
  647.00  6.8560E-003  
  647.50  7.0089E-003  
  648.00  7.3689E-003  
  648.50  7.1731E-003  
  649.00  6.9608E-003  
  649.50  6.8253E-003  
  650.00  6.4140E-003  
  650.50  6.1326E-003  
  651.00  6.0529E-003  
  651.50  6.7695E-003  
  652.00  7.5831E-003  
  652.50  7.7818E-003  
  653.00  7.3687E-003  
  653.50  6.6305E-003  
  654.00  6.2237E-003  
  654.50  6.2332E-003  
  655.00  6.2782E-003  
  655.50  6.5585E-003  
  656.00  6.6413E-003  
  656.50  6.6032E-003  
  657.00  6.3237E-003  
  657.50  6.1847E-003  
  658.00  6.1324E-003  
  658.50  6.0731E-003  
  659.00  6.0035E-003  
  659.50  6.3720E-003  
  660.00  7.1251E-003  
  660.50  7.6310E-003  
  661.00  7.1588E-003  
  661.50  6.3715E-003  
  662.00  5.4980E-003  
  662.50  5.2769E-003  
  663.00  5.1590E-003  
  663.50  5.2956E-003  
  664.00  5.2488E-003  
  664.50  4.9757E-003  
  665.00  4.8220E-003  
  665.50  5.0295E-003  
  666.00  5.1993E-003  
  666.50  5.1222E-003  
  667.00  4.9461E-003  
  667.50  5.0087E-003  
  668.00  5.3567E-003  
  668.50  6.0473E-003  
  669.00  1.0692E-002  
  669.50  2.3035E-002  
  670.00  4.2936E-002  
  670.50  5.9229E-002  
  671.00  5.9866E-002  
  671.50  4.4801E-002  
  672.00  2.5838E-002  
  672.50  1.4597E-002  
  673.00  1.1836E-002  
  673.50  1.2689E-002  
  674.00  1.2698E-002  
  674.50  1.0908E-002  
  675.00  8.5192E-003  
  675.50  6.5393E-003  
  676.00  5.5684E-003  
  676.50  5.0315E-003  
  677.00  4.6893E-003  
  677.50  4.5534E-003  
  678.00  4.7522E-003  
  678.50  5.2185E-003  
  679.00  5.7649E-003  
  679.50  6.1809E-003  
