
# From lspdd.org
# 
# Name: DEL Dals LEDRDM1 Domestique
# Indice spectral Valeur 
# MSI 0.32 
# SLI 0.53 
# IPI 0.65 
# Pourcentage de bleu 21.4 
# Caractéristique Valeur 
# CCT calculée (K) 2957 
# CCT du fabricant (K) 3000 
# Tension (V) 12 
# Puissance (W) 1.0 
# Efficacité lumineuse (Lum/W) 91.0 
#
# Image: '/app/system/img_1s/2701/medium_image1.JPG?1464613296'
# 

  273.00  0.0000E+000  
  273.50  0.0000E+000  
  274.00  0.0000E+000  
  274.50  0.0000E+000  
  275.00  0.0000E+000  
  275.50  0.0000E+000  
  276.00  0.0000E+000  
  276.50  0.0000E+000  
  277.00  0.0000E+000  
  277.50  0.0000E+000  
  278.00  0.0000E+000  
  278.50  0.0000E+000  
  279.00  0.0000E+000  
  279.50  0.0000E+000  
  280.00  0.0000E+000  
  280.50  0.0000E+000  
  281.00  0.0000E+000  
  281.50  0.0000E+000  
  282.00  0.0000E+000  
  282.50  0.0000E+000  
  283.00  0.0000E+000  
  283.50  0.0000E+000  
  284.00  0.0000E+000  
  284.50  0.0000E+000  
  285.00  0.0000E+000  
  285.50  0.0000E+000  
  286.00  0.0000E+000  
  286.50  0.0000E+000  
  287.00  0.0000E+000  
  287.50  0.0000E+000  
  288.00  0.0000E+000  
  288.50  0.0000E+000  
  289.00  0.0000E+000  
  289.50  0.0000E+000  
  290.00  0.0000E+000  
  290.50  0.0000E+000  
  291.00  0.0000E+000  
  291.50  0.0000E+000  
  292.00  0.0000E+000  
  292.50  0.0000E+000  
  293.00  0.0000E+000  
  293.50  0.0000E+000  
  294.00  0.0000E+000  
  294.50  0.0000E+000  
  295.00  0.0000E+000  
  295.50  0.0000E+000  
  296.00  0.0000E+000  
  296.50  0.0000E+000  
  297.00  0.0000E+000  
  297.50  0.0000E+000  
  298.00  0.0000E+000  
  298.50  0.0000E+000  
  299.00  0.0000E+000  
  299.50  0.0000E+000  
  300.00  0.0000E+000  
  300.50  0.0000E+000  
  301.00  0.0000E+000  
  301.50  0.0000E+000  
  302.00  0.0000E+000  
  302.50  0.0000E+000  
  303.00  0.0000E+000  
  303.50  0.0000E+000  
  304.00  1.6315E-005  
  304.50  4.6778E-005  
  305.00  4.8657E-005  
  305.50  3.3071E-005  
  306.00  0.0000E+000  
  306.50  0.0000E+000  
  307.00  0.0000E+000  
  307.50  0.0000E+000  
  308.00  0.0000E+000  
  308.50  0.0000E+000  
  309.00  0.0000E+000  
  309.50  5.5434E-005  
  310.00  1.0779E-004  
  310.50  1.0174E-004  
  311.00  4.8278E-005  
  311.50  9.9512E-005  
  312.00  7.8752E-005  
  312.50  4.5010E-005  
  313.00  3.5099E-005  
  313.50  0.0000E+000  
  314.00  0.0000E+000  
  314.50  0.0000E+000  
  315.00  0.0000E+000  
  315.50  0.0000E+000  
  316.00  1.0489E-006  
  316.50  1.5638E-005  
  317.00  7.2055E-005  
  317.50  8.3470E-005  
  318.00  7.5102E-005  
  318.50  1.1436E-004  
  319.00  1.0764E-004  
  319.50  1.6882E-004  
  320.00  1.5711E-004  
  320.50  1.3738E-004  
  321.00  1.2796E-004  
  321.50  1.5434E-004  
  322.00  2.1350E-004  
  322.50  1.5547E-004  
  323.00  7.1388E-005  
  323.50  3.5553E-006  
  324.00  0.0000E+000  
  324.50  1.6219E-005  
  325.00  7.4632E-005  
  325.50  1.0379E-004  
  326.00  1.3113E-004  
  326.50  1.3329E-004  
  327.00  9.6651E-005  
  327.50  9.9461E-005  
  328.00  7.8351E-005  
  328.50  5.6765E-005  
  329.00  5.4031E-005  
  329.50  5.4129E-005  
  330.00  6.2625E-005  
  330.50  9.9944E-005  
  331.00  7.7747E-005  
  331.50  7.0172E-005  
  332.00  3.3148E-005  
  332.50  0.0000E+000  
  333.00  0.0000E+000  
  333.50  0.0000E+000  
  334.00  0.0000E+000  
  334.50  3.0701E-005  
  335.00  1.0085E-004  
  335.50  2.0230E-004  
  336.00  2.5122E-004  
  336.50  2.3330E-004  
  337.00  2.4043E-004  
  337.50  2.0417E-004  
  338.00  1.1226E-004  
  338.50  6.1123E-005  
  339.00  1.4504E-006  
  339.50  1.8098E-005  
  340.00  9.0011E-005  
  340.50  1.3431E-004  
  341.00  1.6457E-004  
  341.50  2.2389E-004  
  342.00  2.6428E-004  
  342.50  2.5447E-004  
  343.00  2.5719E-004  
  343.50  2.1045E-004  
  344.00  1.6411E-004  
  344.50  1.8056E-004  
  345.00  2.1045E-004  
  345.50  2.0338E-004  
  346.00  1.9556E-004  
  346.50  1.8116E-004  
  347.00  1.4038E-004  
  347.50  1.1337E-004  
  348.00  6.0703E-005  
  348.50  5.5277E-005  
  349.00  7.8841E-005  
  349.50  1.1357E-004  
  350.00  1.7260E-004  
  350.50  1.3297E-004  
  351.00  7.9706E-005  
  351.50  9.0478E-005  
  352.00  1.5623E-004  
  352.50  2.4048E-004  
  353.00  2.7738E-004  
  353.50  2.3392E-004  
  354.00  1.7085E-004  
  354.50  1.2692E-004  
  355.00  1.4003E-004  
  355.50  1.5555E-004  
  356.00  1.3227E-004  
  356.50  9.5152E-005  
  357.00  7.0181E-005  
  357.50  2.2180E-005  
  358.00  4.9051E-006  
  358.50  5.0527E-006  
  359.00  2.0875E-005  
  359.50  5.5803E-005  
  360.00  8.7642E-005  
  360.50  9.1258E-005  
  361.00  2.0387E-005  
  361.50  1.5806E-005  
  362.00  6.3641E-005  
  362.50  1.3321E-004  
  363.00  2.2372E-004  
  363.50  2.4313E-004  
  364.00  2.0306E-004  
  364.50  1.5683E-004  
  365.00  1.3520E-004  
  365.50  1.0726E-004  
  366.00  1.1902E-004  
  366.50  1.5891E-004  
  367.00  1.4111E-004  
  367.50  1.0652E-004  
  368.00  7.8811E-005  
  368.50  7.6080E-005  
  369.00  1.3451E-004  
  369.50  2.0050E-004  
  370.00  1.7862E-004  
  370.50  1.6264E-004  
  371.00  1.0274E-004  
  371.50  5.5869E-005  
  372.00  6.4436E-005  
  372.50  5.0813E-005  
  373.00  7.8591E-005  
  373.50  7.7112E-005  
  374.00  6.2325E-005  
  374.50  1.0292E-004  
  375.00  1.4739E-004  
  375.50  1.8254E-004  
  376.00  1.7578E-004  
  376.50  1.8376E-004  
  377.00  1.9312E-004  
  377.50  1.9060E-004  
  378.00  1.9279E-004  
  378.50  1.2427E-004  
  379.00  1.4660E-004  
  379.50  1.7761E-004  
  380.00  2.3782E-004  
  380.50  3.0431E-004  
  381.00  3.3157E-004  
  381.50  2.8149E-004  
  382.00  2.3268E-004  
  382.50  2.0398E-004  
  383.00  2.6322E-004  
  383.50  2.9827E-004  
  384.00  2.8061E-004  
  384.50  1.8911E-004  
  385.00  1.2091E-004  
  385.50  1.5120E-004  
  386.00  1.3767E-004  
  386.50  1.3670E-004  
  387.00  1.1710E-004  
  387.50  1.4402E-004  
  388.00  1.9112E-004  
  388.50  2.2309E-004  
  389.00  1.9644E-004  
  389.50  1.8611E-004  
  390.00  2.2926E-004  
  390.50  2.9376E-004  
  391.00  3.4750E-004  
  391.50  3.3242E-004  
  392.00  2.8230E-004  
  392.50  2.8190E-004  
  393.00  2.7474E-004  
  393.50  2.8740E-004  
  394.00  2.8422E-004  
  394.50  2.5052E-004  
  395.00  1.9799E-004  
  395.50  2.2210E-004  
  396.00  2.3656E-004  
  396.50  3.4155E-004  
  397.00  4.3550E-004  
  397.50  4.2951E-004  
  398.00  4.2879E-004  
  398.50  4.1559E-004  
  399.00  3.6039E-004  
  399.50  3.1109E-004  
  400.00  2.6894E-004  
  400.50  3.0111E-004  
  401.00  3.7976E-004  
  401.50  4.6218E-004  
  402.00  5.1611E-004  
  402.50  5.2644E-004  
  403.00  4.9583E-004  
  403.50  5.1270E-004  
  404.00  5.1703E-004  
  404.50  5.2571E-004  
  405.00  5.8414E-004  
  405.50  6.0444E-004  
  406.00  6.2027E-004  
  406.50  6.0900E-004  
  407.00  5.4474E-004  
  407.50  4.8335E-004  
  408.00  5.0524E-004  
  408.50  5.7119E-004  
  409.00  6.5433E-004  
  409.50  7.0639E-004  
  410.00  7.6364E-004  
  410.50  8.0630E-004  
  411.00  8.5046E-004  
  411.50  9.2180E-004  
  412.00  1.0086E-003  
  412.50  1.0671E-003  
  413.00  1.1011E-003  
  413.50  1.1010E-003  
  414.00  1.0772E-003  
  414.50  1.1145E-003  
  415.00  1.2251E-003  
  415.50  1.3476E-003  
  416.00  1.4656E-003  
  416.50  1.5522E-003  
  417.00  1.6276E-003  
  417.50  1.7016E-003  
  418.00  1.7655E-003  
  418.50  1.9018E-003  
  419.00  2.0653E-003  
  419.50  2.2762E-003  
  420.00  2.4333E-003  
  420.50  2.5468E-003  
  421.00  2.6544E-003  
  421.50  2.7896E-003  
  422.00  2.9758E-003  
  422.50  3.1317E-003  
  423.00  3.2911E-003  
  423.50  3.5199E-003  
  424.00  3.7350E-003  
  424.50  4.0100E-003  
  425.00  4.2473E-003  
  425.50  4.4623E-003  
  426.00  4.7553E-003  
  426.50  5.0175E-003  
  427.00  5.3126E-003  
  427.50  5.6041E-003  
  428.00  5.9411E-003  
  428.50  6.3705E-003  
  429.00  6.8069E-003  
  429.50  7.2065E-003  
  430.00  7.5123E-003  
  430.50  7.8420E-003  
  431.00  8.1644E-003  
  431.50  8.5820E-003  
  432.00  9.0082E-003  
  432.50  9.5472E-003  
  433.00  1.0126E-002  
  433.50  1.0782E-002  
  434.00  1.1368E-002  
  434.50  1.1918E-002  
  435.00  1.2473E-002  
  435.50  1.3125E-002  
  436.00  1.3914E-002  
  436.50  1.4741E-002  
  437.00  1.5685E-002  
  437.50  1.6591E-002  
  438.00  1.7437E-002  
  438.50  1.8316E-002  
  439.00  1.9244E-002  
  439.50  2.0385E-002  
  440.00  2.1630E-002  
  440.50  2.2870E-002  
  441.00  2.4159E-002  
  441.50  2.5459E-002  
  442.00  2.6952E-002  
  442.50  2.8489E-002  
  443.00  2.9995E-002  
  443.50  3.1586E-002  
  444.00  3.3169E-002  
  444.50  3.4962E-002  
  445.00  3.6738E-002  
  445.50  3.8710E-002  
  446.00  4.0561E-002  
  446.50  4.2443E-002  
  447.00  4.4318E-002  
  447.50  4.6071E-002  
  448.00  4.7828E-002  
  448.50  4.9417E-002  
  449.00  5.0995E-002  
  449.50  5.2604E-002  
  450.00  5.3882E-002  
  450.50  5.5114E-002  
  451.00  5.6092E-002  
  451.50  5.6812E-002  
  452.00  5.7370E-002  
  452.50  5.7854E-002  
  453.00  5.8299E-002  
  453.50  5.8538E-002  
  454.00  5.8441E-002  
  454.50  5.7836E-002  
  455.00  5.6927E-002  
  455.50  5.6048E-002  
  456.00  5.5157E-002  
  456.50  5.4242E-002  
  457.00  5.3294E-002  
  457.50  5.2026E-002  
  458.00  5.0675E-002  
  458.50  4.9345E-002  
  459.00  4.8050E-002  
  459.50  4.6765E-002  
  460.00  4.5451E-002  
  460.50  4.4119E-002  
  461.00  4.2894E-002  
  461.50  4.1973E-002  
  462.00  4.1110E-002  
  462.50  4.0305E-002  
  463.00  3.9596E-002  
  463.50  3.8819E-002  
  464.00  3.8283E-002  
  464.50  3.7625E-002  
  465.00  3.6948E-002  
  465.50  3.6293E-002  
  466.00  3.5666E-002  
  466.50  3.5259E-002  
  467.00  3.4920E-002  
  467.50  3.4617E-002  
  468.00  3.4246E-002  
  468.50  3.3724E-002  
  469.00  3.3160E-002  
  469.50  3.2642E-002  
  470.00  3.2287E-002  
  470.50  3.1926E-002  
  471.00  3.1383E-002  
  471.50  3.0677E-002  
  472.00  2.9971E-002  
  472.50  2.9406E-002  
  473.00  2.8986E-002  
  473.50  2.8530E-002  
  474.00  2.8013E-002  
  474.50  2.7500E-002  
  475.00  2.7003E-002  
  475.50  2.6489E-002  
  476.00  2.5980E-002  
  476.50  2.5535E-002  
  477.00  2.5203E-002  
  477.50  2.4899E-002  
  478.00  2.4679E-002  
  478.50  2.4456E-002  
  479.00  2.4270E-002  
  479.50  2.4103E-002  
  480.00  2.3900E-002  
  480.50  2.3839E-002  
  481.00  2.3800E-002  
  481.50  2.3855E-002  
  482.00  2.3876E-002  
  482.50  2.3877E-002  
  483.00  2.3904E-002  
  483.50  2.3963E-002  
  484.00  2.4041E-002  
  484.50  2.4197E-002  
  485.00  2.4326E-002  
  485.50  2.4475E-002  
  486.00  2.4602E-002  
  486.50  2.4750E-002  
  487.00  2.4907E-002  
  487.50  2.5108E-002  
  488.00  2.5390E-002  
  488.50  2.5677E-002  
  489.00  2.5980E-002  
  489.50  2.6268E-002  
  490.00  2.6478E-002  
  490.50  2.6730E-002  
  491.00  2.7003E-002  
  491.50  2.7295E-002  
  492.00  2.7638E-002  
  492.50  2.7976E-002  
  493.00  2.8303E-002  
  493.50  2.8722E-002  
  494.00  2.9060E-002  
  494.50  2.9422E-002  
  495.00  2.9836E-002  
  495.50  3.0286E-002  
  496.00  3.0853E-002  
  496.50  3.1287E-002  
  497.00  3.1665E-002  
  497.50  3.2046E-002  
  498.00  3.2470E-002  
  498.50  3.2944E-002  
  499.00  3.3395E-002  
  499.50  3.3810E-002  
  500.00  3.4236E-002  
  500.50  3.4704E-002  
  501.00  3.5217E-002  
  501.50  3.5768E-002  
  502.00  3.6267E-002  
  502.50  3.6724E-002  
  503.00  3.7253E-002  
  503.50  3.7751E-002  
  504.00  3.8255E-002  
  504.50  3.8686E-002  
  505.00  3.9133E-002  
  505.50  3.9647E-002  
  506.00  4.0125E-002  
  506.50  4.0537E-002  
  507.00  4.1010E-002  
  507.50  4.1545E-002  
  508.00  4.2106E-002  
  508.50  4.2559E-002  
  509.00  4.2871E-002  
  509.50  4.3195E-002  
  510.00  4.3561E-002  
  510.50  4.3985E-002  
  511.00  4.4500E-002  
  511.50  4.4964E-002  
  512.00  4.5413E-002  
  512.50  4.5795E-002  
  513.00  4.6099E-002  
  513.50  4.6327E-002  
  514.00  4.6585E-002  
  514.50  4.6934E-002  
  515.00  4.7371E-002  
  515.50  4.7794E-002  
  516.00  4.8187E-002  
  516.50  4.8568E-002  
  517.00  4.8950E-002  
  517.50  4.9298E-002  
  518.00  4.9667E-002  
  518.50  5.0037E-002  
  519.00  5.0415E-002  
  519.50  5.0761E-002  
  520.00  5.1099E-002  
  520.50  5.1405E-002  
  521.00  5.1639E-002  
  521.50  5.1848E-002  
  522.00  5.2045E-002  
  522.50  5.2370E-002  
  523.00  5.2741E-002  
  523.50  5.3128E-002  
  524.00  5.3484E-002  
  524.50  5.3773E-002  
  525.00  5.4098E-002  
  525.50  5.4473E-002  
  526.00  5.4845E-002  
  526.50  5.5145E-002  
  527.00  5.5479E-002  
  527.50  5.5778E-002  
  528.00  5.6134E-002  
  528.50  5.6516E-002  
  529.00  5.6842E-002  
  529.50  5.7131E-002  
  530.00  5.7401E-002  
  530.50  5.7726E-002  
  531.00  5.8073E-002  
  531.50  5.8479E-002  
  532.00  5.8857E-002  
  532.50  5.9187E-002  
  533.00  5.9499E-002  
  533.50  5.9878E-002  
  534.00  6.0319E-002  
  534.50  6.0814E-002  
  535.00  6.1204E-002  
  535.50  6.1554E-002  
  536.00  6.1855E-002  
  536.50  6.2205E-002  
  537.00  6.2570E-002  
  537.50  6.2915E-002  
  538.00  6.3310E-002  
  538.50  6.3683E-002  
  539.00  6.4081E-002  
  539.50  6.4392E-002  
  540.00  6.4782E-002  
  540.50  6.5202E-002  
  541.00  6.5717E-002  
  541.50  6.6278E-002  
  542.00  6.6759E-002  
  542.50  6.7104E-002  
  543.00  6.7423E-002  
  543.50  6.7702E-002  
  544.00  6.8089E-002  
  544.50  6.8563E-002  
  545.00  6.9089E-002  
  545.50  6.9723E-002  
  546.00  7.0196E-002  
  546.50  7.0507E-002  
  547.00  7.0894E-002  
  547.50  7.1354E-002  
  548.00  7.1832E-002  
  548.50  7.2289E-002  
  549.00  7.2738E-002  
  549.50  7.3265E-002  
  550.00  7.3750E-002  
  550.50  7.4187E-002  
  551.00  7.4578E-002  
  551.50  7.5028E-002  
  552.00  7.5461E-002  
  552.50  7.5993E-002  
  553.00  7.6442E-002  
  553.50  7.7020E-002  
  554.00  7.7575E-002  
  554.50  7.8166E-002  
  555.00  7.8762E-002  
  555.50  7.9273E-002  
  556.00  7.9794E-002  
  556.50  8.0204E-002  
  557.00  8.0600E-002  
  557.50  8.1196E-002  
  558.00  8.1746E-002  
  558.50  8.2271E-002  
  559.00  8.2681E-002  
  559.50  8.3180E-002  
  560.00  8.3837E-002  
  560.50  8.4390E-002  
  561.00  8.4944E-002  
  561.50  8.5529E-002  
  562.00  8.6107E-002  
  562.50  8.6685E-002  
  563.00  8.7222E-002  
  563.50  8.7730E-002  
  564.00  8.8349E-002  
  564.50  8.8957E-002  
  565.00  8.9567E-002  
  565.50  9.0135E-002  
  566.00  9.0537E-002  
  566.50  9.1108E-002  
  567.00  9.1609E-002  
  567.50  9.2218E-002  
  568.00  9.2735E-002  
  568.50  9.3177E-002  
  569.00  9.3641E-002  
  569.50  9.4159E-002  
  570.00  9.4669E-002  
  570.50  9.5272E-002  
  571.00  9.5794E-002  
  571.50  9.6287E-002  
  572.00  9.6847E-002  
  572.50  9.7327E-002  
  573.00  9.8021E-002  
  573.50  9.8690E-002  
  574.00  9.9275E-002  
  574.50  9.9840E-002  
  575.00  1.0033E-001  
  575.50  1.0084E-001  
  576.00  1.0138E-001  
  576.50  1.0195E-001  
  577.00  1.0260E-001  
  577.50  1.0324E-001  
  578.00  1.0374E-001  
  578.50  1.0427E-001  
  579.00  1.0466E-001  
  579.50  1.0521E-001  
  580.00  1.0567E-001  
  580.50  1.0621E-001  
  581.00  1.0680E-001  
  581.50  1.0736E-001  
  582.00  1.0780E-001  
  582.50  1.0810E-001  
  583.00  1.0845E-001  
  583.50  1.0880E-001  
  584.00  1.0938E-001  
  584.50  1.0986E-001  
  585.00  1.1040E-001  
  585.50  1.1086E-001  
  586.00  1.1133E-001  
  586.50  1.1181E-001  
  587.00  1.1214E-001  
  587.50  1.1264E-001  
  588.00  1.1308E-001  
  588.50  1.1357E-001  
  589.00  1.1378E-001  
  589.50  1.1399E-001  
  590.00  1.1424E-001  
  590.50  1.1471E-001  
  591.00  1.1509E-001  
  591.50  1.1569E-001  
  592.00  1.1612E-001  
  592.50  1.1650E-001  
  593.00  1.1672E-001  
  593.50  1.1680E-001  
  594.00  1.1702E-001  
  594.50  1.1718E-001  
  595.00  1.1730E-001  
  595.50  1.1734E-001  
  596.00  1.1770E-001  
  596.50  1.1805E-001  
  597.00  1.1821E-001  
  597.50  1.1818E-001  
  598.00  1.1821E-001  
  598.50  1.1831E-001  
  599.00  1.1848E-001  
  599.50  1.1859E-001  
  600.00  1.1872E-001  
  600.50  1.1887E-001  
  601.00  1.1892E-001  
  601.50  1.1903E-001  
  602.00  1.1906E-001  
  602.50  1.1911E-001  
  603.00  1.1913E-001  
  603.50  1.1893E-001  
  604.00  1.1869E-001  
  604.50  1.1845E-001  
  605.00  1.1839E-001  
  605.50  1.1856E-001  
  606.00  1.1862E-001  
  606.50  1.1872E-001  
  607.00  1.1850E-001  
  607.50  1.1820E-001  
  608.00  1.1789E-001  
  608.50  1.1767E-001  
  609.00  1.1770E-001  
  609.50  1.1763E-001  
  610.00  1.1751E-001  
  610.50  1.1713E-001  
  611.00  1.1683E-001  
  611.50  1.1656E-001  
  612.00  1.1634E-001  
  612.50  1.1590E-001  
  613.00  1.1539E-001  
  613.50  1.1494E-001  
  614.00  1.1458E-001  
  614.50  1.1422E-001  
  615.00  1.1374E-001  
  615.50  1.1341E-001  
  616.00  1.1310E-001  
  616.50  1.1275E-001  
  617.00  1.1235E-001  
  617.50  1.1204E-001  
  618.00  1.1170E-001  
  618.50  1.1130E-001  
  619.00  1.1067E-001  
  619.50  1.1007E-001  
  620.00  1.0947E-001  
  620.50  1.0892E-001  
  621.00  1.0832E-001  
  621.50  1.0770E-001  
  622.00  1.0725E-001  
  622.50  1.0695E-001  
  623.00  1.0664E-001  
  623.50  1.0606E-001  
  624.00  1.0536E-001  
  624.50  1.0465E-001  
  625.00  1.0409E-001  
  625.50  1.0344E-001  
  626.00  1.0275E-001  
  626.50  1.0206E-001  
  627.00  1.0155E-001  
  627.50  1.0105E-001  
  628.00  1.0053E-001  
  628.50  9.9779E-002  
  629.00  9.9063E-002  
  629.50  9.8493E-002  
  630.00  9.8130E-002  
  630.50  9.7646E-002  
  631.00  9.6844E-002  
  631.50  9.6170E-002  
  632.00  9.5537E-002  
  632.50  9.4907E-002  
  633.00  9.4185E-002  
  633.50  9.3502E-002  
  634.00  9.3089E-002  
  634.50  9.2544E-002  
  635.00  9.1914E-002  
  635.50  9.1059E-002  
  636.00  9.0301E-002  
  636.50  8.9450E-002  
  637.00  8.8813E-002  
  637.50  8.8028E-002  
  638.00  8.7394E-002  
  638.50  8.6704E-002  
  639.00  8.5908E-002  
  639.50  8.5156E-002  
  640.00  8.4371E-002  
  640.50  8.3795E-002  
  641.00  8.3120E-002  
  641.50  8.2365E-002  
  642.00  8.1490E-002  
  642.50  8.0664E-002  
  643.00  7.9837E-002  
  643.50  7.8931E-002  
  644.00  7.8097E-002  
  644.50  7.7182E-002  
  645.00  7.6534E-002  
  645.50  7.5893E-002  
  646.00  7.5359E-002  
  646.50  7.4822E-002  
  647.00  7.4075E-002  
  647.50  7.3340E-002  
  648.00  7.2615E-002  
  648.50  7.2035E-002  
  649.00  7.1376E-002  
  649.50  7.0591E-002  
  650.00  6.9644E-002  
  650.50  6.8786E-002  
  651.00  6.8014E-002  
  651.50  6.7370E-002  
  652.00  6.6816E-002  
  652.50  6.6039E-002  
  653.00  6.5270E-002  
  653.50  6.4337E-002  
  654.00  6.3610E-002  
  654.50  6.2877E-002  
  655.00  6.2241E-002  
  655.50  6.1481E-002  
  656.00  6.0720E-002  
  656.50  5.9947E-002  
  657.00  5.9249E-002  
  657.50  5.8535E-002  
  658.00  5.7830E-002  
  658.50  5.7194E-002  
  659.00  5.6592E-002  
  659.50  5.6056E-002  
  660.00  5.5311E-002  
  660.50  5.4609E-002  
  661.00  5.3903E-002  
  661.50  5.3378E-002  
  662.00  5.2664E-002  
  662.50  5.1928E-002  
  663.00  5.1276E-002  
  663.50  5.0649E-002  
  664.00  4.9911E-002  
  664.50  4.9061E-002  
  665.00  4.8326E-002  
  665.50  4.7742E-002  
  666.00  4.7207E-002  
  666.50  4.6682E-002  
  667.00  4.6232E-002  
  667.50  4.5704E-002  
  668.00  4.4975E-002  
  668.50  4.4185E-002  
  669.00  4.3497E-002  
  669.50  4.2866E-002  
  670.00  4.2218E-002  
  670.50  4.1593E-002  
  671.00  4.1066E-002  
  671.50  4.0542E-002  
  672.00  3.9969E-002  
  672.50  3.9393E-002  
  673.00  3.8859E-002  
  673.50  3.8402E-002  
  674.00  3.7980E-002  
  674.50  3.7504E-002  
  675.00  3.6935E-002  
  675.50  3.6518E-002  
  676.00  3.6123E-002  
  676.50  3.5597E-002  
  677.00  3.4867E-002  
  677.50  3.4130E-002  
  678.00  3.3576E-002  
  678.50  3.3070E-002  
  679.00  3.2603E-002  
  679.50  3.2083E-002  
  680.00  3.1683E-002  
  680.50  3.1271E-002  
  681.00  3.0915E-002  
