
# From lspdd.org
# 
# Name: DELKEELytePro32Philips KEELytePro32Extérieur
# Indice spectral Valeur 
# MSI 0.54 
# SLI 0.63 
# IPI 0.78 
# Pourcentage de bleu 29.7 
# Caractéristique Valeur 
# CCT calculée (K) 3523 
# CCT du fabricant (K) 4000 
# Tension (V) 120 
# Puissance (W) 71.0 
# Efficacité lumineuse (Lum/W) 80.0 
#
# Image: '/app/system/img_2s/2702/medium_image2.jpg?1464613317'
# Image: '/app/system/img_1s/2702/medium_image1.JPG?1464613300'
# 

  273.00  0.0000E+000  
  273.50  0.0000E+000  
  274.00  0.0000E+000  
  274.50  0.0000E+000  
  275.00  0.0000E+000  
  275.50  0.0000E+000  
  276.00  0.0000E+000  
  276.50  0.0000E+000  
  277.00  0.0000E+000  
  277.50  0.0000E+000  
  278.00  0.0000E+000  
  278.50  0.0000E+000  
  279.00  0.0000E+000  
  279.50  0.0000E+000  
  280.00  0.0000E+000  
  280.50  0.0000E+000  
  281.00  0.0000E+000  
  281.50  0.0000E+000  
  282.00  0.0000E+000  
  282.50  0.0000E+000  
  283.00  0.0000E+000  
  283.50  0.0000E+000  
  284.00  0.0000E+000  
  284.50  0.0000E+000  
  285.00  0.0000E+000  
  285.50  0.0000E+000  
  286.00  0.0000E+000  
  286.50  0.0000E+000  
  287.00  0.0000E+000  
  287.50  0.0000E+000  
  288.00  0.0000E+000  
  288.50  0.0000E+000  
  289.00  0.0000E+000  
  289.50  0.0000E+000  
  290.00  0.0000E+000  
  290.50  0.0000E+000  
  291.00  0.0000E+000  
  291.50  0.0000E+000  
  292.00  0.0000E+000  
  292.50  0.0000E+000  
  293.00  0.0000E+000  
  293.50  0.0000E+000  
  294.00  0.0000E+000  
  294.50  0.0000E+000  
  295.00  0.0000E+000  
  295.50  0.0000E+000  
  296.00  0.0000E+000  
  296.50  0.0000E+000  
  297.00  0.0000E+000  
  297.50  0.0000E+000  
  298.00  0.0000E+000  
  298.50  0.0000E+000  
  299.00  0.0000E+000  
  299.50  0.0000E+000  
  300.00  5.9289E-005  
  300.50  1.7035E-004  
  301.00  1.9001E-004  
  301.50  1.9882E-004  
  302.00  3.0017E-004  
  302.50  3.6974E-004  
  303.00  4.1194E-004  
  303.50  4.3652E-004  
  304.00  3.5456E-004  
  304.50  3.0031E-004  
  305.00  3.0172E-004  
  305.50  3.0807E-004  
  306.00  3.4339E-004  
  306.50  3.8835E-004  
  307.00  3.7560E-004  
  307.50  3.1284E-004  
  308.00  2.5029E-004  
  308.50  2.0043E-004  
  309.00  2.1087E-004  
  309.50  2.9830E-004  
  310.00  3.6030E-004  
  310.50  4.0735E-004  
  311.00  4.3958E-004  
  311.50  6.4712E-004  
  312.00  7.7376E-004  
  312.50  7.6498E-004  
  313.00  6.5907E-004  
  313.50  3.6272E-004  
  314.00  2.8757E-004  
  314.50  3.2466E-004  
  315.00  3.4279E-004  
  315.50  3.6355E-004  
  316.00  3.8695E-004  
  316.50  4.1256E-004  
  317.00  4.5142E-004  
  317.50  5.2088E-004  
  318.00  5.9095E-004  
  318.50  6.3538E-004  
  319.00  7.0513E-004  
  319.50  6.6322E-004  
  320.00  5.4070E-004  
  320.50  4.7789E-004  
  321.00  4.2691E-004  
  321.50  5.0372E-004  
  322.00  5.7710E-004  
  322.50  5.5325E-004  
  323.00  4.8029E-004  
  323.50  3.8010E-004  
  324.00  3.4234E-004  
  324.50  3.4517E-004  
  325.00  3.9527E-004  
  325.50  3.9487E-004  
  326.00  3.9388E-004  
  326.50  3.5425E-004  
  327.00  3.8090E-004  
  327.50  4.6907E-004  
  328.00  5.3258E-004  
  328.50  6.5588E-004  
  329.00  6.0661E-004  
  329.50  5.8355E-004  
  330.00  5.9705E-004  
  330.50  5.9047E-004  
  331.00  6.0525E-004  
  331.50  6.1351E-004  
  332.00  5.9075E-004  
  332.50  5.9798E-004  
  333.00  6.6501E-004  
  333.50  6.3952E-004  
  334.00  6.5015E-004  
  334.50  6.8552E-004  
  335.00  7.1174E-004  
  335.50  7.8167E-004  
  336.00  7.7163E-004  
  336.50  7.3683E-004  
  337.00  7.1747E-004  
  337.50  7.0869E-004  
  338.00  6.9798E-004  
  338.50  6.3470E-004  
  339.00  5.7428E-004  
  339.50  5.1245E-004  
  340.00  5.1556E-004  
  340.50  5.2378E-004  
  341.00  5.2738E-004  
  341.50  5.8976E-004  
  342.00  6.5899E-004  
  342.50  6.6479E-004  
  343.00  6.3164E-004  
  343.50  5.5827E-004  
  344.00  5.5180E-004  
  344.50  5.8703E-004  
  345.00  6.0105E-004  
  345.50  6.2921E-004  
  346.00  5.8473E-004  
  346.50  5.9712E-004  
  347.00  6.2071E-004  
  347.50  6.0766E-004  
  348.00  6.1851E-004  
  348.50  5.9602E-004  
  349.00  6.8103E-004  
  349.50  7.3315E-004  
  350.00  8.5784E-004  
  350.50  9.1415E-004  
  351.00  9.0537E-004  
  351.50  9.0161E-004  
  352.00  8.6464E-004  
  352.50  7.9292E-004  
  353.00  7.0302E-004  
  353.50  5.8699E-004  
  354.00  5.0866E-004  
  354.50  5.8429E-004  
  355.00  6.7573E-004  
  355.50  7.5453E-004  
  356.00  7.8739E-004  
  356.50  7.5100E-004  
  357.00  6.7420E-004  
  357.50  5.9436E-004  
  358.00  5.4757E-004  
  358.50  5.6481E-004  
  359.00  6.5958E-004  
  359.50  7.1244E-004  
  360.00  7.7052E-004  
  360.50  7.4973E-004  
  361.00  7.3982E-004  
  361.50  7.6037E-004  
  362.00  7.5952E-004  
  362.50  7.7334E-004  
  363.00  8.4562E-004  
  363.50  9.2701E-004  
  364.00  1.0046E-003  
  364.50  9.8267E-004  
  365.00  9.5628E-004  
  365.50  8.6061E-004  
  366.00  8.0861E-004  
  366.50  7.7318E-004  
  367.00  7.7361E-004  
  367.50  8.3920E-004  
  368.00  8.8569E-004  
  368.50  9.2337E-004  
  369.00  8.8179E-004  
  369.50  8.5355E-004  
  370.00  8.4175E-004  
  370.50  8.9302E-004  
  371.00  9.1786E-004  
  371.50  9.3281E-004  
  372.00  9.4614E-004  
  372.50  8.6801E-004  
  373.00  8.3905E-004  
  373.50  8.2627E-004  
  374.00  7.7811E-004  
  374.50  8.0441E-004  
  375.00  8.2776E-004  
  375.50  8.8583E-004  
  376.00  9.3428E-004  
  376.50  1.0326E-003  
  377.00  1.0691E-003  
  377.50  1.0689E-003  
  378.00  1.0706E-003  
  378.50  1.0271E-003  
  379.00  1.0434E-003  
  379.50  1.0870E-003  
  380.00  1.0850E-003  
  380.50  1.0737E-003  
  381.00  1.0551E-003  
  381.50  1.0081E-003  
  382.00  9.8937E-004  
  382.50  9.5303E-004  
  383.00  1.0445E-003  
  383.50  1.0433E-003  
  384.00  1.0863E-003  
  384.50  1.0641E-003  
  385.00  1.0222E-003  
  385.50  1.0975E-003  
  386.00  1.0891E-003  
  386.50  1.1048E-003  
  387.00  1.1065E-003  
  387.50  1.1022E-003  
  388.00  1.2420E-003  
  388.50  1.2832E-003  
  389.00  1.3216E-003  
  389.50  1.3377E-003  
  390.00  1.3029E-003  
  390.50  1.3032E-003  
  391.00  1.3177E-003  
  391.50  1.2712E-003  
  392.00  1.2476E-003  
  392.50  1.2559E-003  
  393.00  1.2946E-003  
  393.50  1.4465E-003  
  394.00  1.5385E-003  
  394.50  1.6029E-003  
  395.00  1.5918E-003  
  395.50  1.6058E-003  
  396.00  1.6419E-003  
  396.50  1.6982E-003  
  397.00  1.7390E-003  
  397.50  1.7809E-003  
  398.00  1.8392E-003  
  398.50  1.9004E-003  
  399.00  1.9280E-003  
  399.50  1.9474E-003  
  400.00  2.0196E-003  
  400.50  2.1270E-003  
  401.00  2.2100E-003  
  401.50  2.2816E-003  
  402.00  2.3522E-003  
  402.50  2.4587E-003  
  403.00  2.5533E-003  
  403.50  2.6629E-003  
  404.00  2.7497E-003  
  404.50  2.8354E-003  
  405.00  2.9810E-003  
  405.50  3.1480E-003  
  406.00  3.3071E-003  
  406.50  3.4461E-003  
  407.00  3.5110E-003  
  407.50  3.6009E-003  
  408.00  3.7887E-003  
  408.50  4.0777E-003  
  409.00  4.3756E-003  
  409.50  4.7048E-003  
  410.00  5.0070E-003  
  410.50  5.3277E-003  
  411.00  5.6959E-003  
  411.50  6.1206E-003  
  412.00  6.6647E-003  
  412.50  7.1968E-003  
  413.00  7.8122E-003  
  413.50  8.4353E-003  
  414.00  9.1215E-003  
  414.50  9.9276E-003  
  415.00  1.0803E-002  
  415.50  1.1764E-002  
  416.00  1.2854E-002  
  416.50  1.3972E-002  
  417.00  1.5184E-002  
  417.50  1.6549E-002  
  418.00  1.8132E-002  
  418.50  1.9855E-002  
  419.00  2.1888E-002  
  419.50  2.3957E-002  
  420.00  2.6197E-002  
  420.50  2.8548E-002  
  421.00  3.1060E-002  
  421.50  3.3901E-002  
  422.00  3.7033E-002  
  422.50  4.0226E-002  
  423.00  4.3670E-002  
  423.50  4.7328E-002  
  424.00  5.1362E-002  
  424.50  5.5873E-002  
  425.00  6.0192E-002  
  425.50  6.4605E-002  
  426.00  6.9198E-002  
  426.50  7.4009E-002  
  427.00  7.9213E-002  
  427.50  8.4588E-002  
  428.00  9.0095E-002  
  428.50  9.6030E-002  
  429.00  1.0233E-001  
  429.50  1.0873E-001  
  430.00  1.1516E-001  
  430.50  1.2143E-001  
  431.00  1.2790E-001  
  431.50  1.3449E-001  
  432.00  1.4102E-001  
  432.50  1.4748E-001  
  433.00  1.5358E-001  
  433.50  1.6010E-001  
  434.00  1.6667E-001  
  434.50  1.7302E-001  
  435.00  1.7873E-001  
  435.50  1.8391E-001  
  436.00  1.8923E-001  
  436.50  1.9449E-001  
  437.00  1.9931E-001  
  437.50  2.0456E-001  
  438.00  2.0951E-001  
  438.50  2.1518E-001  
  439.00  2.2058E-001  
  439.50  2.2559E-001  
  440.00  2.3048E-001  
  440.50  2.3522E-001  
  441.00  2.3985E-001  
  441.50  2.4395E-001  
  442.00  2.4896E-001  
  442.50  2.5366E-001  
  443.00  2.5808E-001  
  443.50  2.6160E-001  
  444.00  2.6415E-001  
  444.50  2.6660E-001  
  445.00  2.6853E-001  
  445.50  2.7029E-001  
  446.00  2.7026E-001  
  446.50  2.6944E-001  
  447.00  2.6820E-001  
  447.50  2.6671E-001  
  448.00  2.6432E-001  
  448.50  2.6056E-001  
  449.00  2.5544E-001  
  449.50  2.4992E-001  
  450.00  2.4251E-001  
  450.50  2.3434E-001  
  451.00  2.2493E-001  
  451.50  2.1527E-001  
  452.00  2.0595E-001  
  452.50  1.9660E-001  
  453.00  1.8748E-001  
  453.50  1.7775E-001  
  454.00  1.6777E-001  
  454.50  1.5757E-001  
  455.00  1.4794E-001  
  455.50  1.3950E-001  
  456.00  1.3193E-001  
  456.50  1.2511E-001  
  457.00  1.1891E-001  
  457.50  1.1269E-001  
  458.00  1.0707E-001  
  458.50  1.0196E-001  
  459.00  9.7429E-002  
  459.50  9.3275E-002  
  460.00  8.9463E-002  
  460.50  8.5749E-002  
  461.00  8.2464E-002  
  461.50  7.9573E-002  
  462.00  7.6767E-002  
  462.50  7.4249E-002  
  463.00  7.1962E-002  
  463.50  6.9619E-002  
  464.00  6.7596E-002  
  464.50  6.5293E-002  
  465.00  6.3051E-002  
  465.50  6.0802E-002  
  466.00  5.8582E-002  
  466.50  5.6482E-002  
  467.00  5.4472E-002  
  467.50  5.2621E-002  
  468.00  5.0928E-002  
  468.50  4.9188E-002  
  469.00  4.7494E-002  
  469.50  4.5843E-002  
  470.00  4.4384E-002  
  470.50  4.3110E-002  
  471.00  4.1767E-002  
  471.50  4.0429E-002  
  472.00  3.9096E-002  
  472.50  3.7927E-002  
  473.00  3.6908E-002  
  473.50  3.6028E-002  
  474.00  3.5241E-002  
  474.50  3.4667E-002  
  475.00  3.4131E-002  
  475.50  3.3634E-002  
  476.00  3.3181E-002  
  476.50  3.2734E-002  
  477.00  3.2396E-002  
  477.50  3.2082E-002  
  478.00  3.1896E-002  
  478.50  3.1798E-002  
  479.00  3.1737E-002  
  479.50  3.1692E-002  
  480.00  3.1605E-002  
  480.50  3.1622E-002  
  481.00  3.1702E-002  
  481.50  3.1823E-002  
  482.00  3.1939E-002  
  482.50  3.2085E-002  
  483.00  3.2264E-002  
  483.50  3.2493E-002  
  484.00  3.2746E-002  
  484.50  3.3084E-002  
  485.00  3.3495E-002  
  485.50  3.3973E-002  
  486.00  3.4517E-002  
  486.50  3.5212E-002  
  487.00  3.5905E-002  
  487.50  3.6665E-002  
  488.00  3.7377E-002  
  488.50  3.8215E-002  
  489.00  3.9281E-002  
  489.50  4.0397E-002  
  490.00  4.1542E-002  
  490.50  4.2661E-002  
  491.00  4.3861E-002  
  491.50  4.5158E-002  
  492.00  4.6647E-002  
  492.50  4.8158E-002  
  493.00  4.9709E-002  
  493.50  5.1322E-002  
  494.00  5.2950E-002  
  494.50  5.4701E-002  
  495.00  5.6494E-002  
  495.50  5.8373E-002  
  496.00  6.0370E-002  
  496.50  6.2352E-002  
  497.00  6.4379E-002  
  497.50  6.6458E-002  
  498.00  6.8622E-002  
  498.50  7.0916E-002  
  499.00  7.3128E-002  
  499.50  7.5337E-002  
  500.00  7.7478E-002  
  500.50  7.9651E-002  
  501.00  8.1958E-002  
  501.50  8.4416E-002  
  502.00  8.6930E-002  
  502.50  8.9461E-002  
  503.00  9.1997E-002  
  503.50  9.4353E-002  
  504.00  9.6692E-002  
  504.50  9.8995E-002  
  505.00  1.0123E-001  
  505.50  1.0337E-001  
  506.00  1.0534E-001  
  506.50  1.0746E-001  
  507.00  1.0970E-001  
  507.50  1.1193E-001  
  508.00  1.1416E-001  
  508.50  1.1614E-001  
  509.00  1.1796E-001  
  509.50  1.1945E-001  
  510.00  1.2088E-001  
  510.50  1.2223E-001  
  511.00  1.2380E-001  
  511.50  1.2523E-001  
  512.00  1.2667E-001  
  512.50  1.2790E-001  
  513.00  1.2894E-001  
  513.50  1.2983E-001  
  514.00  1.3066E-001  
  514.50  1.3161E-001  
  515.00  1.3245E-001  
  515.50  1.3322E-001  
  516.00  1.3391E-001  
  516.50  1.3461E-001  
  517.00  1.3536E-001  
  517.50  1.3599E-001  
  518.00  1.3664E-001  
  518.50  1.3738E-001  
  519.00  1.3807E-001  
  519.50  1.3886E-001  
  520.00  1.3946E-001  
  520.50  1.4007E-001  
  521.00  1.4065E-001  
  521.50  1.4116E-001  
  522.00  1.4165E-001  
  522.50  1.4204E-001  
  523.00  1.4257E-001  
  523.50  1.4318E-001  
  524.00  1.4378E-001  
  524.50  1.4431E-001  
  525.00  1.4487E-001  
  525.50  1.4546E-001  
  526.00  1.4600E-001  
  526.50  1.4644E-001  
  527.00  1.4681E-001  
  527.50  1.4716E-001  
  528.00  1.4745E-001  
  528.50  1.4771E-001  
  529.00  1.4790E-001  
  529.50  1.4809E-001  
  530.00  1.4825E-001  
  530.50  1.4844E-001  
  531.00  1.4864E-001  
  531.50  1.4896E-001  
  532.00  1.4947E-001  
  532.50  1.4995E-001  
  533.00  1.5039E-001  
  533.50  1.5065E-001  
  534.00  1.5103E-001  
  534.50  1.5138E-001  
  535.00  1.5174E-001  
  535.50  1.5203E-001  
  536.00  1.5240E-001  
  536.50  1.5277E-001  
  537.00  1.5310E-001  
  537.50  1.5343E-001  
  538.00  1.5385E-001  
  538.50  1.5425E-001  
  539.00  1.5462E-001  
  539.50  1.5491E-001  
  540.00  1.5532E-001  
  540.50  1.5571E-001  
  541.00  1.5617E-001  
  541.50  1.5660E-001  
  542.00  1.5698E-001  
  542.50  1.5741E-001  
  543.00  1.5769E-001  
  543.50  1.5801E-001  
  544.00  1.5825E-001  
  544.50  1.5857E-001  
  545.00  1.5894E-001  
  545.50  1.5938E-001  
  546.00  1.5979E-001  
  546.50  1.6019E-001  
  547.00  1.6067E-001  
  547.50  1.6122E-001  
  548.00  1.6163E-001  
  548.50  1.6201E-001  
  549.00  1.6230E-001  
  549.50  1.6273E-001  
  550.00  1.6308E-001  
  550.50  1.6351E-001  
  551.00  1.6400E-001  
  551.50  1.6453E-001  
  552.00  1.6506E-001  
  552.50  1.6545E-001  
  553.00  1.6592E-001  
  553.50  1.6639E-001  
  554.00  1.6690E-001  
  554.50  1.6738E-001  
  555.00  1.6784E-001  
  555.50  1.6836E-001  
  556.00  1.6885E-001  
  556.50  1.6949E-001  
  557.00  1.6997E-001  
  557.50  1.7050E-001  
  558.00  1.7100E-001  
  558.50  1.7155E-001  
  559.00  1.7201E-001  
  559.50  1.7257E-001  
  560.00  1.7312E-001  
  560.50  1.7374E-001  
  561.00  1.7442E-001  
  561.50  1.7503E-001  
  562.00  1.7566E-001  
  562.50  1.7607E-001  
  563.00  1.7653E-001  
  563.50  1.7704E-001  
  564.00  1.7775E-001  
  564.50  1.7838E-001  
  565.00  1.7897E-001  
  565.50  1.7947E-001  
  566.00  1.7998E-001  
  566.50  1.8048E-001  
  567.00  1.8111E-001  
  567.50  1.8161E-001  
  568.00  1.8213E-001  
  568.50  1.8263E-001  
  569.00  1.8320E-001  
  569.50  1.8390E-001  
  570.00  1.8446E-001  
  570.50  1.8506E-001  
  571.00  1.8564E-001  
  571.50  1.8630E-001  
  572.00  1.8698E-001  
  572.50  1.8753E-001  
  573.00  1.8811E-001  
  573.50  1.8862E-001  
  574.00  1.8932E-001  
  574.50  1.8995E-001  
  575.00  1.9060E-001  
  575.50  1.9117E-001  
  576.00  1.9171E-001  
  576.50  1.9227E-001  
  577.00  1.9286E-001  
  577.50  1.9355E-001  
  578.00  1.9433E-001  
  578.50  1.9492E-001  
  579.00  1.9546E-001  
  579.50  1.9591E-001  
  580.00  1.9645E-001  
  580.50  1.9703E-001  
  581.00  1.9765E-001  
  581.50  1.9827E-001  
  582.00  1.9882E-001  
  582.50  1.9927E-001  
  583.00  1.9971E-001  
  583.50  2.0024E-001  
  584.00  2.0087E-001  
  584.50  2.0156E-001  
  585.00  2.0226E-001  
  585.50  2.0288E-001  
  586.00  2.0343E-001  
  586.50  2.0396E-001  
  587.00  2.0460E-001  
  587.50  2.0517E-001  
  588.00  2.0594E-001  
  588.50  2.0665E-001  
  589.00  2.0749E-001  
  589.50  2.0812E-001  
  590.00  2.0874E-001  
  590.50  2.0925E-001  
  591.00  2.0996E-001  
  591.50  2.1065E-001  
  592.00  2.1144E-001  
  592.50  2.1218E-001  
  593.00  2.1289E-001  
  593.50  2.1350E-001  
  594.00  2.1401E-001  
  594.50  2.1467E-001  
  595.00  2.1526E-001  
  595.50  2.1597E-001  
  596.00  2.1661E-001  
  596.50  2.1730E-001  
  597.00  2.1797E-001  
  597.50  2.1866E-001  
  598.00  2.1933E-001  
  598.50  2.1992E-001  
  599.00  2.2050E-001  
  599.50  2.2114E-001  
  600.00  2.2182E-001  
  600.50  2.2251E-001  
  601.00  2.2306E-001  
  601.50  2.2370E-001  
  602.00  2.2422E-001  
  602.50  2.2478E-001  
  603.00  2.2522E-001  
  603.50  2.2558E-001  
  604.00  2.2596E-001  
  604.50  2.2623E-001  
  605.00  2.2643E-001  
  605.50  2.2653E-001  
  606.00  2.2670E-001  
  606.50  2.2702E-001  
  607.00  2.2732E-001  
  607.50  2.2763E-001  
  608.00  2.2786E-001  
  608.50  2.2806E-001  
  609.00  2.2814E-001  
  609.50  2.2820E-001  
  610.00  2.2836E-001  
  610.50  2.2850E-001  
  611.00  2.2873E-001  
  611.50  2.2903E-001  
  612.00  2.2930E-001  
  612.50  2.2940E-001  
  613.00  2.2930E-001  
  613.50  2.2926E-001  
  614.00  2.2923E-001  
  614.50  2.2929E-001  
  615.00  2.2923E-001  
  615.50  2.2932E-001  
  616.00  2.2918E-001  
  616.50  2.2908E-001  
  617.00  2.2882E-001  
  617.50  2.2880E-001  
  618.00  2.2881E-001  
  618.50  2.2876E-001  
  619.00  2.2856E-001  
  619.50  2.2820E-001  
  620.00  2.2796E-001  
  620.50  2.2779E-001  
  621.00  2.2773E-001  
  621.50  2.2755E-001  
  622.00  2.2727E-001  
  622.50  2.2692E-001  
  623.00  2.2650E-001  
  623.50  2.2619E-001  
  624.00  2.2586E-001  
  624.50  2.2562E-001  
  625.00  2.2525E-001  
  625.50  2.2470E-001  
  626.00  2.2398E-001  
  626.50  2.2331E-001  
  627.00  2.2273E-001  
  627.50  2.2232E-001  
  628.00  2.2185E-001  
  628.50  2.2124E-001  
  629.00  2.2053E-001  
  629.50  2.1981E-001  
  630.00  2.1936E-001  
  630.50  2.1862E-001  
  631.00  2.1775E-001  
  631.50  2.1685E-001  
  632.00  2.1592E-001  
  632.50  2.1477E-001  
  633.00  2.1357E-001  
  633.50  2.1252E-001  
  634.00  2.1177E-001  
  634.50  2.1095E-001  
  635.00  2.0993E-001  
  635.50  2.0870E-001  
  636.00  2.0725E-001  
  636.50  2.0605E-001  
  637.00  2.0479E-001  
  637.50  2.0340E-001  
  638.00  2.0180E-001  
  638.50  2.0041E-001  
  639.00  1.9912E-001  
  639.50  1.9785E-001  
  640.00  1.9644E-001  
  640.50  1.9497E-001  
  641.00  1.9374E-001  
  641.50  1.9238E-001  
  642.00  1.9094E-001  
  642.50  1.8941E-001  
  643.00  1.8770E-001  
  643.50  1.8638E-001  
  644.00  1.8511E-001  
  644.50  1.8387E-001  
  645.00  1.8223E-001  
  645.50  1.8046E-001  
  646.00  1.7872E-001  
  646.50  1.7725E-001  
  647.00  1.7572E-001  
  647.50  1.7415E-001  
  648.00  1.7254E-001  
  648.50  1.7097E-001  
  649.00  1.6956E-001  
  649.50  1.6815E-001  
  650.00  1.6673E-001  
  650.50  1.6517E-001  
  651.00  1.6357E-001  
  651.50  1.6177E-001  
  652.00  1.6013E-001  
  652.50  1.5822E-001  
  653.00  1.5655E-001  
  653.50  1.5486E-001  
  654.00  1.5356E-001  
  654.50  1.5216E-001  
  655.00  1.5067E-001  
  655.50  1.4908E-001  
  656.00  1.4754E-001  
  656.50  1.4608E-001  
  657.00  1.4439E-001  
  657.50  1.4282E-001  
  658.00  1.4123E-001  
  658.50  1.3991E-001  
  659.00  1.3843E-001  
  659.50  1.3684E-001  
  660.00  1.3519E-001  
  660.50  1.3356E-001  
  661.00  1.3211E-001  
  661.50  1.3070E-001  
  662.00  1.2917E-001  
  662.50  1.2770E-001  
  663.00  1.2617E-001  
  663.50  1.2474E-001  
  664.00  1.2319E-001  
  664.50  1.2163E-001  
  665.00  1.2005E-001  
  665.50  1.1834E-001  
  666.00  1.1689E-001  
  666.50  1.1535E-001  
  667.00  1.1405E-001  
  667.50  1.1292E-001  
  668.00  1.1177E-001  
  668.50  1.1051E-001  
  669.00  1.0886E-001  
  669.50  1.0742E-001  
  670.00  1.0603E-001  
  670.50  1.0479E-001  
  671.00  1.0358E-001  
  671.50  1.0248E-001  
  672.00  1.0115E-001  
  672.50  9.9822E-002  
  673.00  9.8359E-002  
  673.50  9.6965E-002  
  674.00  9.5576E-002  
  674.50  9.4315E-002  
  675.00  9.3228E-002  
  675.50  9.2187E-002  
  676.00  9.1053E-002  
  676.50  8.9652E-002  
  677.00  8.8273E-002  
  677.50  8.6874E-002  
  678.00  8.5680E-002  
  678.50  8.4446E-002  
  679.00  8.3310E-002  
  679.50  8.2093E-002  
