
# From lspdd.org
# 
# Name: DEL Dals SWIVLED12 Domestique
# Indice spectral Valeur 
# MSI 0.28 
# SLI 0.49 
# IPI 0.67 
# Pourcentage de bleu 17.9 
# Caractéristique Valeur 
# CCT calculée (K) 2692 
# CCT du fabricant (K) 3000 
# Tension (V) 12 
# Puissance (W) 3.2 
# Efficacité lumineuse (Lum/W) 94.0 
#
# Image: '/app/system/img_2s/2704/medium_image2.JPG?1464613334'
# Image: '/app/system/img_1s/2704/medium_image1.JPG?1464613332'
# 

  273.00  0.0000E+000  
  273.50  0.0000E+000  
  274.00  0.0000E+000  
  274.50  0.0000E+000  
  275.00  0.0000E+000  
  275.50  0.0000E+000  
  276.00  0.0000E+000  
  276.50  0.0000E+000  
  277.00  0.0000E+000  
  277.50  0.0000E+000  
  278.00  0.0000E+000  
  278.50  0.0000E+000  
  279.00  0.0000E+000  
  279.50  0.0000E+000  
  280.00  0.0000E+000  
  280.50  0.0000E+000  
  281.00  0.0000E+000  
  281.50  0.0000E+000  
  282.00  0.0000E+000  
  282.50  0.0000E+000  
  283.00  0.0000E+000  
  283.50  0.0000E+000  
  284.00  0.0000E+000  
  284.50  0.0000E+000  
  285.00  0.0000E+000  
  285.50  0.0000E+000  
  286.00  0.0000E+000  
  286.50  0.0000E+000  
  287.00  0.0000E+000  
  287.50  0.0000E+000  
  288.00  0.0000E+000  
  288.50  0.0000E+000  
  289.00  0.0000E+000  
  289.50  0.0000E+000  
  290.00  0.0000E+000  
  290.50  0.0000E+000  
  291.00  0.0000E+000  
  291.50  0.0000E+000  
  292.00  0.0000E+000  
  292.50  0.0000E+000  
  293.00  0.0000E+000  
  293.50  0.0000E+000  
  294.00  0.0000E+000  
  294.50  0.0000E+000  
  295.00  0.0000E+000  
  295.50  0.0000E+000  
  296.00  0.0000E+000  
  296.50  0.0000E+000  
  297.00  0.0000E+000  
  297.50  0.0000E+000  
  298.00  0.0000E+000  
  298.50  0.0000E+000  
  299.00  0.0000E+000  
  299.50  0.0000E+000  
  300.00  0.0000E+000  
  300.50  0.0000E+000  
  301.00  0.0000E+000  
  301.50  0.0000E+000  
  302.00  0.0000E+000  
  302.50  0.0000E+000  
  303.00  0.0000E+000  
  303.50  0.0000E+000  
  304.00  0.0000E+000  
  304.50  0.0000E+000  
  305.00  0.0000E+000  
  305.50  0.0000E+000  
  306.00  0.0000E+000  
  306.50  2.0344E-006  
  307.00  3.1959E-005  
  307.50  3.4375E-006  
  308.00  0.0000E+000  
  308.50  0.0000E+000  
  309.00  0.0000E+000  
  309.50  6.4611E-006  
  310.00  2.5780E-005  
  310.50  1.8511E-006  
  311.00  0.0000E+000  
  311.50  0.0000E+000  
  312.00  0.0000E+000  
  312.50  0.0000E+000  
  313.00  0.0000E+000  
  313.50  0.0000E+000  
  314.00  0.0000E+000  
  314.50  0.0000E+000  
  315.00  0.0000E+000  
  315.50  0.0000E+000  
  316.00  0.0000E+000  
  316.50  0.0000E+000  
  317.00  0.0000E+000  
  317.50  0.0000E+000  
  318.00  1.2105E-005  
  318.50  9.0537E-005  
  319.00  1.5919E-004  
  319.50  1.9579E-004  
  320.00  1.3134E-004  
  320.50  6.7623E-005  
  321.00  1.9756E-005  
  321.50  1.0659E-005  
  322.00  2.7760E-005  
  322.50  0.0000E+000  
  323.00  0.0000E+000  
  323.50  0.0000E+000  
  324.00  0.0000E+000  
  324.50  0.0000E+000  
  325.00  0.0000E+000  
  325.50  0.0000E+000  
  326.00  0.0000E+000  
  326.50  0.0000E+000  
  327.00  0.0000E+000  
  327.50  0.0000E+000  
  328.00  0.0000E+000  
  328.50  8.6982E-006  
  329.00  1.5479E-005  
  329.50  0.0000E+000  
  330.00  0.0000E+000  
  330.50  0.0000E+000  
  331.00  0.0000E+000  
  331.50  2.5051E-006  
  332.00  2.4426E-005  
  332.50  1.3295E-006  
  333.00  0.0000E+000  
  333.50  0.0000E+000  
  334.00  0.0000E+000  
  334.50  0.0000E+000  
  335.00  1.4461E-005  
  335.50  9.1907E-005  
  336.00  1.2669E-004  
  336.50  6.5057E-005  
  337.00  1.4445E-005  
  337.50  1.1371E-007  
  338.00  0.0000E+000  
  338.50  0.0000E+000  
  339.00  0.0000E+000  
  339.50  0.0000E+000  
  340.00  0.0000E+000  
  340.50  0.0000E+000  
  341.00  1.5856E-005  
  341.50  8.1278E-005  
  342.00  1.2617E-004  
  342.50  8.6065E-005  
  343.00  2.4612E-005  
  343.50  0.0000E+000  
  344.00  0.0000E+000  
  344.50  0.0000E+000  
  345.00  0.0000E+000  
  345.50  0.0000E+000  
  346.00  0.0000E+000  
  346.50  2.3094E-005  
  347.00  8.2011E-006  
  347.50  0.0000E+000  
  348.00  0.0000E+000  
  348.50  0.0000E+000  
  349.00  0.0000E+000  
  349.50  5.3157E-005  
  350.00  1.2495E-004  
  350.50  1.0873E-004  
  351.00  9.1122E-005  
  351.50  7.6443E-005  
  352.00  1.3003E-004  
  352.50  1.0839E-004  
  353.00  2.5815E-005  
  353.50  0.0000E+000  
  354.00  0.0000E+000  
  354.50  0.0000E+000  
  355.00  7.2613E-006  
  355.50  2.7881E-005  
  356.00  9.9514E-006  
  356.50  0.0000E+000  
  357.00  0.0000E+000  
  357.50  0.0000E+000  
  358.00  0.0000E+000  
  358.50  0.0000E+000  
  359.00  0.0000E+000  
  359.50  0.0000E+000  
  360.00  0.0000E+000  
  360.50  0.0000E+000  
  361.00  0.0000E+000  
  361.50  0.0000E+000  
  362.00  1.6820E-005  
  362.50  5.6174E-005  
  363.00  8.5764E-005  
  363.50  1.1654E-004  
  364.00  1.1818E-004  
  364.50  9.8052E-005  
  365.00  6.1714E-005  
  365.50  4.7532E-008  
  366.00  0.0000E+000  
  366.50  0.0000E+000  
  367.00  0.0000E+000  
  367.50  0.0000E+000  
  368.00  0.0000E+000  
  368.50  0.0000E+000  
  369.00  1.0200E-005  
  369.50  3.0255E-005  
  370.00  1.2006E-005  
  370.50  3.1225E-006  
  371.00  0.0000E+000  
  371.50  2.9599E-006  
  372.00  2.1745E-005  
  372.50  2.8665E-005  
  373.00  4.5584E-005  
  373.50  1.8953E-005  
  374.00  0.0000E+000  
  374.50  0.0000E+000  
  375.00  0.0000E+000  
  375.50  0.0000E+000  
  376.00  8.5709E-006  
  376.50  2.6850E-005  
  377.00  7.2522E-005  
  377.50  9.8299E-005  
  378.00  9.9156E-005  
  378.50  7.6836E-005  
  379.00  8.6754E-005  
  379.50  1.2644E-004  
  380.00  1.0345E-004  
  380.50  1.0052E-004  
  381.00  4.0013E-005  
  381.50  0.0000E+000  
  382.00  0.0000E+000  
  382.50  1.4610E-006  
  383.00  4.0328E-005  
  383.50  5.0925E-005  
  384.00  6.1838E-005  
  384.50  2.9143E-005  
  385.00  2.9923E-006  
  385.50  3.4903E-005  
  386.00  5.0925E-006  
  386.50  0.0000E+000  
  387.00  0.0000E+000  
  387.50  0.0000E+000  
  388.00  2.4379E-005  
  388.50  3.6215E-007  
  389.00  0.0000E+000  
  389.50  3.9844E-006  
  390.00  1.6722E-005  
  390.50  3.4595E-005  
  391.00  3.8753E-005  
  391.50  3.7327E-005  
  392.00  9.3301E-005  
  392.50  1.6863E-004  
  393.00  1.6181E-004  
  393.50  1.4068E-004  
  394.00  1.1785E-004  
  394.50  6.1474E-005  
  395.00  5.6440E-005  
  395.50  6.1717E-005  
  396.00  5.1723E-005  
  396.50  1.0000E-004  
  397.00  1.6807E-004  
  397.50  1.8087E-004  
  398.00  2.0614E-004  
  398.50  1.9109E-004  
  399.00  1.2344E-004  
  399.50  9.8432E-005  
  400.00  1.0044E-004  
  400.50  1.4671E-004  
  401.00  1.7221E-004  
  401.50  1.7740E-004  
  402.00  1.6457E-004  
  402.50  1.9835E-004  
  403.00  2.2616E-004  
  403.50  2.7665E-004  
  404.00  2.9960E-004  
  404.50  2.4831E-004  
  405.00  2.1725E-004  
  405.50  1.8247E-004  
  406.00  1.5519E-004  
  406.50  1.6749E-004  
  407.00  1.5481E-004  
  407.50  1.1019E-004  
  408.00  1.1138E-004  
  408.50  1.0467E-004  
  409.00  1.3826E-004  
  409.50  1.9834E-004  
  410.00  2.7319E-004  
  410.50  2.9558E-004  
  411.00  2.7760E-004  
  411.50  2.6436E-004  
  412.00  2.6541E-004  
  412.50  3.1950E-004  
  413.00  3.5845E-004  
  413.50  3.4596E-004  
  414.00  3.2645E-004  
  414.50  2.8287E-004  
  415.00  2.8527E-004  
  415.50  3.1547E-004  
  416.00  3.4569E-004  
  416.50  3.8451E-004  
  417.00  4.3269E-004  
  417.50  4.6658E-004  
  418.00  5.0183E-004  
  418.50  4.9259E-004  
  419.00  5.0810E-004  
  419.50  5.6130E-004  
  420.00  6.1209E-004  
  420.50  6.7463E-004  
  421.00  6.9235E-004  
  421.50  7.2869E-004  
  422.00  7.7611E-004  
  422.50  8.2577E-004  
  423.00  9.1798E-004  
  423.50  1.0149E-003  
  424.00  1.1314E-003  
  424.50  1.2625E-003  
  425.00  1.3421E-003  
  425.50  1.4100E-003  
  426.00  1.4591E-003  
  426.50  1.5552E-003  
  427.00  1.6334E-003  
  427.50  1.7468E-003  
  428.00  1.8496E-003  
  428.50  1.9992E-003  
  429.00  2.1550E-003  
  429.50  2.2959E-003  
  430.00  2.4572E-003  
  430.50  2.6061E-003  
  431.00  2.7632E-003  
  431.50  2.9144E-003  
  432.00  3.0397E-003  
  432.50  3.2556E-003  
  433.00  3.5522E-003  
  433.50  3.8393E-003  
  434.00  4.0252E-003  
  434.50  4.2269E-003  
  435.00  4.3995E-003  
  435.50  4.6401E-003  
  436.00  4.9439E-003  
  436.50  5.2221E-003  
  437.00  5.5503E-003  
  437.50  5.8572E-003  
  438.00  6.1379E-003  
  438.50  6.4230E-003  
  439.00  6.7503E-003  
  439.50  7.1207E-003  
  440.00  7.5613E-003  
  440.50  8.0027E-003  
  441.00  8.4543E-003  
  441.50  8.9297E-003  
  442.00  9.4621E-003  
  442.50  9.9942E-003  
  443.00  1.0604E-002  
  443.50  1.1239E-002  
  444.00  1.1946E-002  
  444.50  1.2742E-002  
  445.00  1.3495E-002  
  445.50  1.4368E-002  
  446.00  1.5211E-002  
  446.50  1.6133E-002  
  447.00  1.7092E-002  
  447.50  1.8104E-002  
  448.00  1.9126E-002  
  448.50  2.0189E-002  
  449.00  2.1213E-002  
  449.50  2.2270E-002  
  450.00  2.3174E-002  
  450.50  2.4008E-002  
  451.00  2.4802E-002  
  451.50  2.5471E-002  
  452.00  2.6185E-002  
  452.50  2.6843E-002  
  453.00  2.7499E-002  
  453.50  2.7994E-002  
  454.00  2.8210E-002  
  454.50  2.8104E-002  
  455.00  2.7755E-002  
  455.50  2.7326E-002  
  456.00  2.6898E-002  
  456.50  2.6334E-002  
  457.00  2.5760E-002  
  457.50  2.5054E-002  
  458.00  2.4318E-002  
  458.50  2.3610E-002  
  459.00  2.2958E-002  
  459.50  2.2291E-002  
  460.00  2.1649E-002  
  460.50  2.0968E-002  
  461.00  2.0331E-002  
  461.50  1.9906E-002  
  462.00  1.9468E-002  
  462.50  1.9040E-002  
  463.00  1.8689E-002  
  463.50  1.8321E-002  
  464.00  1.8100E-002  
  464.50  1.7826E-002  
  465.00  1.7479E-002  
  465.50  1.7195E-002  
  466.00  1.6982E-002  
  466.50  1.6914E-002  
  467.00  1.6871E-002  
  467.50  1.6774E-002  
  468.00  1.6634E-002  
  468.50  1.6432E-002  
  469.00  1.6211E-002  
  469.50  1.6026E-002  
  470.00  1.5874E-002  
  470.50  1.5746E-002  
  471.00  1.5517E-002  
  471.50  1.5170E-002  
  472.00  1.4817E-002  
  472.50  1.4495E-002  
  473.00  1.4199E-002  
  473.50  1.3927E-002  
  474.00  1.3652E-002  
  474.50  1.3421E-002  
  475.00  1.3215E-002  
  475.50  1.2958E-002  
  476.00  1.2743E-002  
  476.50  1.2586E-002  
  477.00  1.2431E-002  
  477.50  1.2286E-002  
  478.00  1.2184E-002  
  478.50  1.2107E-002  
  479.00  1.2112E-002  
  479.50  1.2052E-002  
  480.00  1.2017E-002  
  480.50  1.2015E-002  
  481.00  1.2058E-002  
  481.50  1.2119E-002  
  482.00  1.2172E-002  
  482.50  1.2262E-002  
  483.00  1.2308E-002  
  483.50  1.2369E-002  
  484.00  1.2435E-002  
  484.50  1.2532E-002  
  485.00  1.2618E-002  
  485.50  1.2715E-002  
  486.00  1.2827E-002  
  486.50  1.3008E-002  
  487.00  1.3140E-002  
  487.50  1.3239E-002  
  488.00  1.3278E-002  
  488.50  1.3373E-002  
  489.00  1.3546E-002  
  489.50  1.3745E-002  
  490.00  1.3948E-002  
  490.50  1.4097E-002  
  491.00  1.4254E-002  
  491.50  1.4398E-002  
  492.00  1.4560E-002  
  492.50  1.4708E-002  
  493.00  1.4816E-002  
  493.50  1.4991E-002  
  494.00  1.5131E-002  
  494.50  1.5338E-002  
  495.00  1.5588E-002  
  495.50  1.5846E-002  
  496.00  1.6132E-002  
  496.50  1.6337E-002  
  497.00  1.6548E-002  
  497.50  1.6773E-002  
  498.00  1.7001E-002  
  498.50  1.7212E-002  
  499.00  1.7440E-002  
  499.50  1.7640E-002  
  500.00  1.7867E-002  
  500.50  1.8086E-002  
  501.00  1.8330E-002  
  501.50  1.8616E-002  
  502.00  1.8855E-002  
  502.50  1.9102E-002  
  503.00  1.9346E-002  
  503.50  1.9546E-002  
  504.00  1.9745E-002  
  504.50  1.9889E-002  
  505.00  2.0090E-002  
  505.50  2.0310E-002  
  506.00  2.0516E-002  
  506.50  2.0743E-002  
  507.00  2.0976E-002  
  507.50  2.1272E-002  
  508.00  2.1549E-002  
  508.50  2.1801E-002  
  509.00  2.1979E-002  
  509.50  2.2090E-002  
  510.00  2.2181E-002  
  510.50  2.2322E-002  
  511.00  2.2524E-002  
  511.50  2.2719E-002  
  512.00  2.2892E-002  
  512.50  2.3054E-002  
  513.00  2.3224E-002  
  513.50  2.3349E-002  
  514.00  2.3492E-002  
  514.50  2.3632E-002  
  515.00  2.3814E-002  
  515.50  2.4049E-002  
  516.00  2.4216E-002  
  516.50  2.4373E-002  
  517.00  2.4493E-002  
  517.50  2.4643E-002  
  518.00  2.4826E-002  
  518.50  2.5041E-002  
  519.00  2.5212E-002  
  519.50  2.5453E-002  
  520.00  2.5622E-002  
  520.50  2.5754E-002  
  521.00  2.5842E-002  
  521.50  2.5966E-002  
  522.00  2.6102E-002  
  522.50  2.6300E-002  
  523.00  2.6524E-002  
  523.50  2.6753E-002  
  524.00  2.6962E-002  
  524.50  2.7113E-002  
  525.00  2.7260E-002  
  525.50  2.7416E-002  
  526.00  2.7518E-002  
  526.50  2.7623E-002  
  527.00  2.7751E-002  
  527.50  2.7934E-002  
  528.00  2.8149E-002  
  528.50  2.8371E-002  
  529.00  2.8587E-002  
  529.50  2.8815E-002  
  530.00  2.9033E-002  
  530.50  2.9311E-002  
  531.00  2.9521E-002  
  531.50  2.9815E-002  
  532.00  3.0039E-002  
  532.50  3.0199E-002  
  533.00  3.0359E-002  
  533.50  3.0587E-002  
  534.00  3.0944E-002  
  534.50  3.1283E-002  
  535.00  3.1543E-002  
  535.50  3.1807E-002  
  536.00  3.2103E-002  
  536.50  3.2378E-002  
  537.00  3.2610E-002  
  537.50  3.2855E-002  
  538.00  3.3064E-002  
  538.50  3.3295E-002  
  539.00  3.3515E-002  
  539.50  3.3732E-002  
  540.00  3.4003E-002  
  540.50  3.4233E-002  
  541.00  3.4535E-002  
  541.50  3.4874E-002  
  542.00  3.5239E-002  
  542.50  3.5516E-002  
  543.00  3.5748E-002  
  543.50  3.5919E-002  
  544.00  3.6182E-002  
  544.50  3.6482E-002  
  545.00  3.6819E-002  
  545.50  3.7170E-002  
  546.00  3.7410E-002  
  546.50  3.7664E-002  
  547.00  3.7954E-002  
  547.50  3.8267E-002  
  548.00  3.8530E-002  
  548.50  3.8811E-002  
  549.00  3.9150E-002  
  549.50  3.9503E-002  
  550.00  3.9827E-002  
  550.50  4.0118E-002  
  551.00  4.0368E-002  
  551.50  4.0660E-002  
  552.00  4.0905E-002  
  552.50  4.1158E-002  
  553.00  4.1422E-002  
  553.50  4.1713E-002  
  554.00  4.2115E-002  
  554.50  4.2559E-002  
  555.00  4.2955E-002  
  555.50  4.3246E-002  
  556.00  4.3470E-002  
  556.50  4.3793E-002  
  557.00  4.4102E-002  
  557.50  4.4464E-002  
  558.00  4.4799E-002  
  558.50  4.5079E-002  
  559.00  4.5366E-002  
  559.50  4.5668E-002  
  560.00  4.6011E-002  
  560.50  4.6414E-002  
  561.00  4.6689E-002  
  561.50  4.7049E-002  
  562.00  4.7392E-002  
  562.50  4.7799E-002  
  563.00  4.8081E-002  
  563.50  4.8318E-002  
  564.00  4.8565E-002  
  564.50  4.8876E-002  
  565.00  4.9136E-002  
  565.50  4.9476E-002  
  566.00  4.9783E-002  
  566.50  5.0167E-002  
  567.00  5.0459E-002  
  567.50  5.0790E-002  
  568.00  5.1080E-002  
  568.50  5.1415E-002  
  569.00  5.1675E-002  
  569.50  5.1935E-002  
  570.00  5.2225E-002  
  570.50  5.2547E-002  
  571.00  5.2868E-002  
  571.50  5.3242E-002  
  572.00  5.3554E-002  
  572.50  5.3836E-002  
  573.00  5.4133E-002  
  573.50  5.4410E-002  
  574.00  5.4761E-002  
  574.50  5.5048E-002  
  575.00  5.5360E-002  
  575.50  5.5722E-002  
  576.00  5.5994E-002  
  576.50  5.6333E-002  
  577.00  5.6691E-002  
  577.50  5.7080E-002  
  578.00  5.7443E-002  
  578.50  5.7791E-002  
  579.00  5.8102E-002  
  579.50  5.8448E-002  
  580.00  5.8687E-002  
  580.50  5.8998E-002  
  581.00  5.9314E-002  
  581.50  5.9628E-002  
  582.00  5.9899E-002  
  582.50  6.0167E-002  
  583.00  6.0376E-002  
  583.50  6.0627E-002  
  584.00  6.0846E-002  
  584.50  6.1287E-002  
  585.00  6.1711E-002  
  585.50  6.2145E-002  
  586.00  6.2494E-002  
  586.50  6.2669E-002  
  587.00  6.2904E-002  
  587.50  6.3180E-002  
  588.00  6.3457E-002  
  588.50  6.3899E-002  
  589.00  6.4138E-002  
  589.50  6.4434E-002  
  590.00  6.4596E-002  
  590.50  6.4889E-002  
  591.00  6.5257E-002  
  591.50  6.5619E-002  
  592.00  6.5849E-002  
  592.50  6.5958E-002  
  593.00  6.6085E-002  
  593.50  6.6240E-002  
  594.00  6.6513E-002  
  594.50  6.6735E-002  
  595.00  6.6947E-002  
  595.50  6.7045E-002  
  596.00  6.7311E-002  
  596.50  6.7548E-002  
  597.00  6.7789E-002  
  597.50  6.7991E-002  
  598.00  6.8125E-002  
  598.50  6.8196E-002  
  599.00  6.8225E-002  
  599.50  6.8299E-002  
  600.00  6.8351E-002  
  600.50  6.8401E-002  
  601.00  6.8422E-002  
  601.50  6.8583E-002  
  602.00  6.8827E-002  
  602.50  6.9014E-002  
  603.00  6.9214E-002  
  603.50  6.9256E-002  
  604.00  6.9297E-002  
  604.50  6.9160E-002  
  605.00  6.9060E-002  
  605.50  6.9053E-002  
  606.00  6.9231E-002  
  606.50  6.9398E-002  
  607.00  6.9433E-002  
  607.50  6.9265E-002  
  608.00  6.9139E-002  
  608.50  6.9204E-002  
  609.00  6.9308E-002  
  609.50  6.9310E-002  
  610.00  6.9187E-002  
  610.50  6.9032E-002  
  611.00  6.8970E-002  
  611.50  6.8979E-002  
  612.00  6.8979E-002  
  612.50  6.8901E-002  
  613.00  6.8791E-002  
  613.50  6.8742E-002  
  614.00  6.8678E-002  
  614.50  6.8647E-002  
  615.00  6.8558E-002  
  615.50  6.8486E-002  
  616.00  6.8264E-002  
  616.50  6.8078E-002  
  617.00  6.7898E-002  
  617.50  6.7723E-002  
  618.00  6.7513E-002  
  618.50  6.7326E-002  
  619.00  6.7159E-002  
  619.50  6.6955E-002  
  620.00  6.6796E-002  
  620.50  6.6747E-002  
  621.00  6.6667E-002  
  621.50  6.6440E-002  
  622.00  6.6072E-002  
  622.50  6.5706E-002  
  623.00  6.5560E-002  
  623.50  6.5452E-002  
  624.00  6.5280E-002  
  624.50  6.4959E-002  
  625.00  6.4625E-002  
  625.50  6.4306E-002  
  626.00  6.3943E-002  
  626.50  6.3739E-002  
  627.00  6.3471E-002  
  627.50  6.3319E-002  
  628.00  6.3006E-002  
  628.50  6.2657E-002  
  629.00  6.2301E-002  
  629.50  6.1982E-002  
  630.00  6.1844E-002  
  630.50  6.1607E-002  
  631.00  6.1296E-002  
  631.50  6.0992E-002  
  632.00  6.0726E-002  
  632.50  6.0427E-002  
  633.00  6.0070E-002  
  633.50  5.9628E-002  
  634.00  5.9249E-002  
  634.50  5.8931E-002  
  635.00  5.8663E-002  
  635.50  5.8390E-002  
  636.00  5.8017E-002  
  636.50  5.7675E-002  
  637.00  5.7327E-002  
  637.50  5.6881E-002  
  638.00  5.6417E-002  
  638.50  5.5967E-002  
  639.00  5.5649E-002  
  639.50  5.5296E-002  
  640.00  5.4933E-002  
  640.50  5.4512E-002  
  641.00  5.4047E-002  
  641.50  5.3577E-002  
  642.00  5.3108E-002  
  642.50  5.2809E-002  
  643.00  5.2441E-002  
  643.50  5.2033E-002  
  644.00  5.1624E-002  
  644.50  5.1187E-002  
  645.00  5.0762E-002  
  645.50  5.0320E-002  
  646.00  4.9918E-002  
  646.50  4.9587E-002  
  647.00  4.9209E-002  
  647.50  4.8795E-002  
  648.00  4.8400E-002  
  648.50  4.8018E-002  
  649.00  4.7577E-002  
  649.50  4.7105E-002  
  650.00  4.6533E-002  
  650.50  4.6012E-002  
  651.00  4.5439E-002  
  651.50  4.5026E-002  
  652.00  4.4642E-002  
  652.50  4.4219E-002  
  653.00  4.3695E-002  
  653.50  4.3175E-002  
  654.00  4.2799E-002  
  654.50  4.2406E-002  
  655.00  4.2005E-002  
  655.50  4.1496E-002  
  656.00  4.0958E-002  
  656.50  4.0598E-002  
  657.00  4.0215E-002  
  657.50  3.9832E-002  
  658.00  3.9312E-002  
  658.50  3.8965E-002  
  659.00  3.8565E-002  
  659.50  3.8128E-002  
  660.00  3.7587E-002  
  660.50  3.7144E-002  
  661.00  3.6734E-002  
  661.50  3.6355E-002  
  662.00  3.5964E-002  
  662.50  3.5537E-002  
  663.00  3.5066E-002  
  663.50  3.4635E-002  
  664.00  3.4162E-002  
  664.50  3.3707E-002  
  665.00  3.3254E-002  
  665.50  3.2848E-002  
  666.00  3.2381E-002  
  666.50  3.1903E-002  
  667.00  3.1550E-002  
  667.50  3.1245E-002  
  668.00  3.0868E-002  
  668.50  3.0461E-002  
  669.00  3.0047E-002  
  669.50  2.9721E-002  
  670.00  2.9377E-002  
  670.50  2.9006E-002  
  671.00  2.8614E-002  
  671.50  2.8245E-002  
  672.00  2.7940E-002  
  672.50  2.7557E-002  
  673.00  2.7081E-002  
  673.50  2.6705E-002  
  674.00  2.6336E-002  
  674.50  2.6075E-002  
  675.00  2.5705E-002  
  675.50  2.5402E-002  
  676.00  2.5108E-002  
  676.50  2.4681E-002  
  677.00  2.4244E-002  
  677.50  2.3771E-002  
  678.00  2.3453E-002  
  678.50  2.3180E-002  
  679.00  2.2872E-002  
  679.50  2.2550E-002  
  680.00  2.2211E-002  
