
# From lspdd.org
# 
# Name: DELKEELedWallLLED1C5K120PCBBZPhilips KEELedWallLLED1C5K120PCBBZ Extérieur
# Indice spectral Valeur 
# MSI 0.51 
# SLI 0.65 
# IPI 0.66 
# Pourcentage de bleu 31.5 
# Caractéristique Valeur 
# CCT calculée (K) 4245 
# CCT du fabricant (K) 5000 
# Tension (V) 120 
# Puissance (W) 12.0 
# Efficacité lumineuse (Lum/W) 69.0 
#
# Image: '/app/system/img_2s/2713/medium_image2.JPG?1464613437'
# Image: '/app/system/img_1s/2713/medium_image1.JPG?1464613420'
# 

  273.00  0.0000E+000  
  273.50  0.0000E+000  
  274.00  0.0000E+000  
  274.50  0.0000E+000  
  275.00  0.0000E+000  
  275.50  0.0000E+000  
  276.00  0.0000E+000  
  276.50  0.0000E+000  
  277.00  0.0000E+000  
  277.50  0.0000E+000  
  278.00  0.0000E+000  
  278.50  0.0000E+000  
  279.00  0.0000E+000  
  279.50  0.0000E+000  
  280.00  0.0000E+000  
  280.50  0.0000E+000  
  281.00  0.0000E+000  
  281.50  0.0000E+000  
  282.00  0.0000E+000  
  282.50  0.0000E+000  
  283.00  0.0000E+000  
  283.50  0.0000E+000  
  284.00  0.0000E+000  
  284.50  0.0000E+000  
  285.00  0.0000E+000  
  285.50  0.0000E+000  
  286.00  0.0000E+000  
  286.50  0.0000E+000  
  287.00  0.0000E+000  
  287.50  0.0000E+000  
  288.00  0.0000E+000  
  288.50  0.0000E+000  
  289.00  0.0000E+000  
  289.50  0.0000E+000  
  290.00  0.0000E+000  
  290.50  0.0000E+000  
  291.00  0.0000E+000  
  291.50  0.0000E+000  
  292.00  0.0000E+000  
  292.50  0.0000E+000  
  293.00  0.0000E+000  
  293.50  0.0000E+000  
  294.00  0.0000E+000  
  294.50  0.0000E+000  
  295.00  0.0000E+000  
  295.50  0.0000E+000  
  296.00  0.0000E+000  
  296.50  0.0000E+000  
  297.00  0.0000E+000  
  297.50  0.0000E+000  
  298.00  0.0000E+000  
  298.50  0.0000E+000  
  299.00  0.0000E+000  
  299.50  0.0000E+000  
  300.00  0.0000E+000  
  300.50  0.0000E+000  
  301.00  0.0000E+000  
  301.50  0.0000E+000  
  302.00  0.0000E+000  
  302.50  0.0000E+000  
  303.00  0.0000E+000  
  303.50  0.0000E+000  
  304.00  0.0000E+000  
  304.50  0.0000E+000  
  305.00  0.0000E+000  
  305.50  0.0000E+000  
  306.00  0.0000E+000  
  306.50  0.0000E+000  
  307.00  0.0000E+000  
  307.50  0.0000E+000  
  308.00  0.0000E+000  
  308.50  0.0000E+000  
  309.00  0.0000E+000  
  309.50  0.0000E+000  
  310.00  8.2348E-006  
  310.50  3.8998E-005  
  311.00  0.0000E+000  
  311.50  0.0000E+000  
  312.00  0.0000E+000  
  312.50  0.0000E+000  
  313.00  0.0000E+000  
  313.50  0.0000E+000  
  314.00  0.0000E+000  
  314.50  0.0000E+000  
  315.00  0.0000E+000  
  315.50  0.0000E+000  
  316.00  0.0000E+000  
  316.50  0.0000E+000  
  317.00  0.0000E+000  
  317.50  0.0000E+000  
  318.00  0.0000E+000  
  318.50  1.3172E-005  
  319.00  7.7803E-005  
  319.50  7.5666E-005  
  320.00  4.3921E-005  
  320.50  2.4842E-005  
  321.00  0.0000E+000  
  321.50  0.0000E+000  
  322.00  0.0000E+000  
  322.50  0.0000E+000  
  323.00  0.0000E+000  
  323.50  0.0000E+000  
  324.00  0.0000E+000  
  324.50  0.0000E+000  
  325.00  0.0000E+000  
  325.50  0.0000E+000  
  326.00  0.0000E+000  
  326.50  0.0000E+000  
  327.00  0.0000E+000  
  327.50  0.0000E+000  
  328.00  0.0000E+000  
  328.50  0.0000E+000  
  329.00  0.0000E+000  
  329.50  0.0000E+000  
  330.00  0.0000E+000  
  330.50  0.0000E+000  
  331.00  0.0000E+000  
  331.50  0.0000E+000  
  332.00  0.0000E+000  
  332.50  0.0000E+000  
  333.00  0.0000E+000  
  333.50  0.0000E+000  
  334.00  0.0000E+000  
  334.50  0.0000E+000  
  335.00  0.0000E+000  
  335.50  0.0000E+000  
  336.00  0.0000E+000  
  336.50  0.0000E+000  
  337.00  0.0000E+000  
  337.50  0.0000E+000  
  338.00  0.0000E+000  
  338.50  0.0000E+000  
  339.00  0.0000E+000  
  339.50  0.0000E+000  
  340.00  0.0000E+000  
  340.50  0.0000E+000  
  341.00  0.0000E+000  
  341.50  0.0000E+000  
  342.00  0.0000E+000  
  342.50  0.0000E+000  
  343.00  0.0000E+000  
  343.50  0.0000E+000  
  344.00  0.0000E+000  
  344.50  0.0000E+000  
  345.00  0.0000E+000  
  345.50  0.0000E+000  
  346.00  0.0000E+000  
  346.50  0.0000E+000  
  347.00  0.0000E+000  
  347.50  0.0000E+000  
  348.00  0.0000E+000  
  348.50  0.0000E+000  
  349.00  0.0000E+000  
  349.50  5.5950E-006  
  350.00  5.0932E-005  
  350.50  4.9848E-006  
  351.00  0.0000E+000  
  351.50  0.0000E+000  
  352.00  0.0000E+000  
  352.50  0.0000E+000  
  353.00  0.0000E+000  
  353.50  0.0000E+000  
  354.00  0.0000E+000  
  354.50  0.0000E+000  
  355.00  0.0000E+000  
  355.50  0.0000E+000  
  356.00  0.0000E+000  
  356.50  0.0000E+000  
  357.00  0.0000E+000  
  357.50  0.0000E+000  
  358.00  0.0000E+000  
  358.50  0.0000E+000  
  359.00  0.0000E+000  
  359.50  0.0000E+000  
  360.00  0.0000E+000  
  360.50  0.0000E+000  
  361.00  0.0000E+000  
  361.50  0.0000E+000  
  362.00  0.0000E+000  
  362.50  0.0000E+000  
  363.00  0.0000E+000  
  363.50  4.5496E-005  
  364.00  1.1095E-004  
  364.50  7.4564E-005  
  365.00  3.9103E-005  
  365.50  3.9683E-008  
  366.00  0.0000E+000  
  366.50  0.0000E+000  
  367.00  0.0000E+000  
  367.50  0.0000E+000  
  368.00  0.0000E+000  
  368.50  0.0000E+000  
  369.00  0.0000E+000  
  369.50  0.0000E+000  
  370.00  7.6823E-006  
  370.50  3.9785E-005  
  371.00  4.2277E-006  
  371.50  0.0000E+000  
  372.00  0.0000E+000  
  372.50  0.0000E+000  
  373.00  0.0000E+000  
  373.50  0.0000E+000  
  374.00  0.0000E+000  
  374.50  0.0000E+000  
  375.00  0.0000E+000  
  375.50  0.0000E+000  
  376.00  0.0000E+000  
  376.50  0.0000E+000  
  377.00  0.0000E+000  
  377.50  0.0000E+000  
  378.00  0.0000E+000  
  378.50  0.0000E+000  
  379.00  2.8091E-005  
  379.50  1.0006E-004  
  380.00  1.4010E-004  
  380.50  1.5848E-004  
  381.00  1.4401E-004  
  381.50  8.8245E-005  
  382.00  7.5571E-005  
  382.50  8.4057E-005  
  383.00  1.4405E-004  
  383.50  1.3991E-004  
  384.00  1.2066E-004  
  384.50  3.1370E-005  
  385.00  6.9340E-008  
  385.50  0.0000E+000  
  386.00  0.0000E+000  
  386.50  0.0000E+000  
  387.00  0.0000E+000  
  387.50  0.0000E+000  
  388.00  1.3927E-005  
  388.50  6.1880E-005  
  389.00  1.1017E-004  
  389.50  1.7300E-004  
  390.00  1.7695E-004  
  390.50  1.7365E-004  
  391.00  2.0027E-004  
  391.50  1.5506E-004  
  392.00  1.4387E-004  
  392.50  1.9344E-004  
  393.00  1.8315E-004  
  393.50  2.2095E-004  
  394.00  2.4775E-004  
  394.50  2.5223E-004  
  395.00  2.4569E-004  
  395.50  2.4649E-004  
  396.00  2.5252E-004  
  396.50  3.1849E-004  
  397.00  4.0565E-004  
  397.50  4.1433E-004  
  398.00  4.1965E-004  
  398.50  3.9009E-004  
  399.00  3.5950E-004  
  399.50  3.5060E-004  
  400.00  4.0707E-004  
  400.50  4.8561E-004  
  401.00  5.5208E-004  
  401.50  5.6235E-004  
  402.00  5.4814E-004  
  402.50  5.7505E-004  
  403.00  6.3074E-004  
  403.50  6.8188E-004  
  404.00  7.0942E-004  
  404.50  7.0331E-004  
  405.00  7.2657E-004  
  405.50  7.7997E-004  
  406.00  8.0564E-004  
  406.50  7.9084E-004  
  407.00  7.9528E-004  
  407.50  8.2614E-004  
  408.00  9.2240E-004  
  408.50  1.0661E-003  
  409.00  1.1632E-003  
  409.50  1.2290E-003  
  410.00  1.2935E-003  
  410.50  1.3591E-003  
  411.00  1.4418E-003  
  411.50  1.5617E-003  
  412.00  1.7547E-003  
  412.50  1.9377E-003  
  413.00  2.1305E-003  
  413.50  2.2539E-003  
  414.00  2.3626E-003  
  414.50  2.6058E-003  
  415.00  2.9216E-003  
  415.50  3.2542E-003  
  416.00  3.5573E-003  
  416.50  3.8029E-003  
  417.00  4.0930E-003  
  417.50  4.4627E-003  
  418.00  4.8738E-003  
  418.50  5.2867E-003  
  419.00  5.7560E-003  
  419.50  6.2594E-003  
  420.00  6.8065E-003  
  420.50  7.3435E-003  
  421.00  7.8847E-003  
  421.50  8.4932E-003  
  422.00  9.1423E-003  
  422.50  9.7759E-003  
  423.00  1.0475E-002  
  423.50  1.1264E-002  
  424.00  1.2192E-002  
  424.50  1.3176E-002  
  425.00  1.4044E-002  
  425.50  1.4922E-002  
  426.00  1.5802E-002  
  426.50  1.6774E-002  
  427.00  1.7769E-002  
  427.50  1.8841E-002  
  428.00  1.9881E-002  
  428.50  2.1008E-002  
  429.00  2.2084E-002  
  429.50  2.3222E-002  
  430.00  2.4456E-002  
  430.50  2.5732E-002  
  431.00  2.7116E-002  
  431.50  2.8533E-002  
  432.00  2.9988E-002  
  432.50  3.1497E-002  
  433.00  3.3047E-002  
  433.50  3.4785E-002  
  434.00  3.6642E-002  
  434.50  3.8432E-002  
  435.00  4.0132E-002  
  435.50  4.1807E-002  
  436.00  4.3645E-002  
  436.50  4.5595E-002  
  437.00  4.7500E-002  
  437.50  4.9525E-002  
  438.00  5.1603E-002  
  438.50  5.4002E-002  
  439.00  5.6479E-002  
  439.50  5.9208E-002  
  440.00  6.1974E-002  
  440.50  6.4680E-002  
  441.00  6.7377E-002  
  441.50  6.9976E-002  
  442.00  7.2839E-002  
  442.50  7.5574E-002  
  443.00  7.8280E-002  
  443.50  8.0691E-002  
  444.00  8.2921E-002  
  444.50  8.5247E-002  
  445.00  8.7374E-002  
  445.50  8.9265E-002  
  446.00  9.0497E-002  
  446.50  9.1344E-002  
  447.00  9.2152E-002  
  447.50  9.2924E-002  
  448.00  9.3133E-002  
  448.50  9.2753E-002  
  449.00  9.2005E-002  
  449.50  9.1112E-002  
  450.00  8.9592E-002  
  450.50  8.7777E-002  
  451.00  8.5447E-002  
  451.50  8.2968E-002  
  452.00  8.0615E-002  
  452.50  7.8168E-002  
  453.00  7.5952E-002  
  453.50  7.3511E-002  
  454.00  7.0844E-002  
  454.50  6.7910E-002  
  455.00  6.4941E-002  
  455.50  6.2197E-002  
  456.00  5.9691E-002  
  456.50  5.7382E-002  
  457.00  5.5273E-002  
  457.50  5.3113E-002  
  458.00  5.0952E-002  
  458.50  4.8874E-002  
  459.00  4.6944E-002  
  459.50  4.5301E-002  
  460.00  4.3792E-002  
  460.50  4.2323E-002  
  461.00  4.0830E-002  
  461.50  3.9387E-002  
  462.00  3.8033E-002  
  462.50  3.6758E-002  
  463.00  3.5624E-002  
  463.50  3.4441E-002  
  464.00  3.3327E-002  
  464.50  3.2114E-002  
  465.00  3.0913E-002  
  465.50  2.9740E-002  
  466.00  2.8665E-002  
  466.50  2.7615E-002  
  467.00  2.6611E-002  
  467.50  2.5686E-002  
  468.00  2.4782E-002  
  468.50  2.3872E-002  
  469.00  2.2969E-002  
  469.50  2.2094E-002  
  470.00  2.1403E-002  
  470.50  2.0758E-002  
  471.00  2.0050E-002  
  471.50  1.9222E-002  
  472.00  1.8503E-002  
  472.50  1.7888E-002  
  473.00  1.7322E-002  
  473.50  1.6857E-002  
  474.00  1.6303E-002  
  474.50  1.5847E-002  
  475.00  1.5343E-002  
  475.50  1.4894E-002  
  476.00  1.4531E-002  
  476.50  1.4236E-002  
  477.00  1.3977E-002  
  477.50  1.3694E-002  
  478.00  1.3465E-002  
  478.50  1.3175E-002  
  479.00  1.2905E-002  
  479.50  1.2628E-002  
  480.00  1.2470E-002  
  480.50  1.2352E-002  
  481.00  1.2188E-002  
  481.50  1.2084E-002  
  482.00  1.1924E-002  
  482.50  1.1846E-002  
  483.00  1.1736E-002  
  483.50  1.1645E-002  
  484.00  1.1609E-002  
  484.50  1.1563E-002  
  485.00  1.1555E-002  
  485.50  1.1570E-002  
  486.00  1.1602E-002  
  486.50  1.1630E-002  
  487.00  1.1603E-002  
  487.50  1.1617E-002  
  488.00  1.1697E-002  
  488.50  1.1839E-002  
  489.00  1.2063E-002  
  489.50  1.2269E-002  
  490.00  1.2506E-002  
  490.50  1.2715E-002  
  491.00  1.2972E-002  
  491.50  1.3282E-002  
  492.00  1.3619E-002  
  492.50  1.3914E-002  
  493.00  1.4242E-002  
  493.50  1.4570E-002  
  494.00  1.4928E-002  
  494.50  1.5340E-002  
  495.00  1.5736E-002  
  495.50  1.6180E-002  
  496.00  1.6685E-002  
  496.50  1.7188E-002  
  497.00  1.7727E-002  
  497.50  1.8311E-002  
  498.00  1.8874E-002  
  498.50  1.9460E-002  
  499.00  2.0041E-002  
  499.50  2.0623E-002  
  500.00  2.1253E-002  
  500.50  2.1879E-002  
  501.00  2.2550E-002  
  501.50  2.3309E-002  
  502.00  2.4100E-002  
  502.50  2.4872E-002  
  503.00  2.5615E-002  
  503.50  2.6286E-002  
  504.00  2.6987E-002  
  504.50  2.7722E-002  
  505.00  2.8475E-002  
  505.50  2.9284E-002  
  506.00  3.0122E-002  
  506.50  3.0937E-002  
  507.00  3.1762E-002  
  507.50  3.2492E-002  
  508.00  3.3260E-002  
  508.50  3.4007E-002  
  509.00  3.4849E-002  
  509.50  3.5681E-002  
  510.00  3.6501E-002  
  510.50  3.7293E-002  
  511.00  3.8119E-002  
  511.50  3.8899E-002  
  512.00  3.9683E-002  
  512.50  4.0433E-002  
  513.00  4.1192E-002  
  513.50  4.1898E-002  
  514.00  4.2565E-002  
  514.50  4.3223E-002  
  515.00  4.3865E-002  
  515.50  4.4508E-002  
  516.00  4.5165E-002  
  516.50  4.5824E-002  
  517.00  4.6557E-002  
  517.50  4.7261E-002  
  518.00  4.7917E-002  
  518.50  4.8600E-002  
  519.00  4.9206E-002  
  519.50  4.9847E-002  
  520.00  5.0434E-002  
  520.50  5.1068E-002  
  521.00  5.1622E-002  
  521.50  5.2165E-002  
  522.00  5.2588E-002  
  522.50  5.3012E-002  
  523.00  5.3509E-002  
  523.50  5.4004E-002  
  524.00  5.4535E-002  
  524.50  5.5013E-002  
  525.00  5.5515E-002  
  525.50  5.5998E-002  
  526.00  5.6436E-002  
  526.50  5.6829E-002  
  527.00  5.7272E-002  
  527.50  5.7711E-002  
  528.00  5.8142E-002  
  528.50  5.8537E-002  
  529.00  5.8947E-002  
  529.50  5.9324E-002  
  530.00  5.9663E-002  
  530.50  5.9932E-002  
  531.00  6.0159E-002  
  531.50  6.0552E-002  
  532.00  6.0959E-002  
  532.50  6.1388E-002  
  533.00  6.1702E-002  
  533.50  6.2043E-002  
  534.00  6.2349E-002  
  534.50  6.2634E-002  
  535.00  6.2879E-002  
  535.50  6.3156E-002  
  536.00  6.3551E-002  
  536.50  6.3903E-002  
  537.00  6.4225E-002  
  537.50  6.4458E-002  
  538.00  6.4707E-002  
  538.50  6.4954E-002  
  539.00  6.5227E-002  
  539.50  6.5397E-002  
  540.00  6.5645E-002  
  540.50  6.5864E-002  
  541.00  6.6187E-002  
  541.50  6.6494E-002  
  542.00  6.6748E-002  
  542.50  6.6935E-002  
  543.00  6.7099E-002  
  543.50  6.7302E-002  
  544.00  6.7510E-002  
  544.50  6.7784E-002  
  545.00  6.8018E-002  
  545.50  6.8170E-002  
  546.00  6.8312E-002  
  546.50  6.8393E-002  
  547.00  6.8589E-002  
  547.50  6.8832E-002  
  548.00  6.9045E-002  
  548.50  6.9288E-002  
  549.00  6.9467E-002  
  549.50  6.9654E-002  
  550.00  6.9740E-002  
  550.50  6.9986E-002  
  551.00  7.0204E-002  
  551.50  7.0363E-002  
  552.00  7.0341E-002  
  552.50  7.0327E-002  
  553.00  7.0363E-002  
  553.50  7.0540E-002  
  554.00  7.0636E-002  
  554.50  7.0817E-002  
  555.00  7.0980E-002  
  555.50  7.1143E-002  
  556.00  7.1350E-002  
  556.50  7.1508E-002  
  557.00  7.1690E-002  
  557.50  7.1821E-002  
  558.00  7.1897E-002  
  558.50  7.2010E-002  
  559.00  7.2164E-002  
  559.50  7.2262E-002  
  560.00  7.2447E-002  
  560.50  7.2479E-002  
  561.00  7.2526E-002  
  561.50  7.2654E-002  
  562.00  7.2730E-002  
  562.50  7.2886E-002  
  563.00  7.2843E-002  
  563.50  7.2945E-002  
  564.00  7.2977E-002  
  564.50  7.3009E-002  
  565.00  7.2982E-002  
  565.50  7.3004E-002  
  566.00  7.3048E-002  
  566.50  7.3139E-002  
  567.00  7.3158E-002  
  567.50  7.3252E-002  
  568.00  7.3260E-002  
  568.50  7.3255E-002  
  569.00  7.3112E-002  
  569.50  7.3047E-002  
  570.00  7.3021E-002  
  570.50  7.3152E-002  
  571.00  7.3204E-002  
  571.50  7.3118E-002  
  572.00  7.3077E-002  
  572.50  7.3045E-002  
  573.00  7.3073E-002  
  573.50  7.3010E-002  
  574.00  7.2987E-002  
  574.50  7.3030E-002  
  575.00  7.3100E-002  
  575.50  7.3143E-002  
  576.00  7.3138E-002  
  576.50  7.3097E-002  
  577.00  7.3167E-002  
  577.50  7.3229E-002  
  578.00  7.3266E-002  
  578.50  7.3253E-002  
  579.00  7.3158E-002  
  579.50  7.3171E-002  
  580.00  7.3176E-002  
  580.50  7.3264E-002  
  581.00  7.3369E-002  
  581.50  7.3381E-002  
  582.00  7.3268E-002  
  582.50  7.3042E-002  
  583.00  7.2891E-002  
  583.50  7.2859E-002  
  584.00  7.2927E-002  
  584.50  7.2965E-002  
  585.00  7.2873E-002  
  585.50  7.2764E-002  
  586.00  7.2646E-002  
  586.50  7.2607E-002  
  587.00  7.2568E-002  
  587.50  7.2599E-002  
  588.00  7.2630E-002  
  588.50  7.2610E-002  
  589.00  7.2494E-002  
  589.50  7.2350E-002  
  590.00  7.2336E-002  
  590.50  7.2278E-002  
  591.00  7.2290E-002  
  591.50  7.2286E-002  
  592.00  7.2300E-002  
  592.50  7.2391E-002  
  593.00  7.2295E-002  
  593.50  7.2020E-002  
  594.00  7.1680E-002  
  594.50  7.1449E-002  
  595.00  7.1406E-002  
  595.50  7.1316E-002  
  596.00  7.1180E-002  
  596.50  7.0975E-002  
  597.00  7.0793E-002  
  597.50  7.0594E-002  
  598.00  7.0403E-002  
  598.50  7.0162E-002  
  599.00  6.9944E-002  
  599.50  6.9697E-002  
  600.00  6.9513E-002  
  600.50  6.9270E-002  
  601.00  6.9069E-002  
  601.50  6.8760E-002  
  602.00  6.8557E-002  
  602.50  6.8348E-002  
  603.00  6.8212E-002  
  603.50  6.8019E-002  
  604.00  6.7748E-002  
  604.50  6.7382E-002  
  605.00  6.7006E-002  
  605.50  6.6851E-002  
  606.00  6.6798E-002  
  606.50  6.6755E-002  
  607.00  6.6530E-002  
  607.50  6.6265E-002  
  608.00  6.5977E-002  
  608.50  6.5729E-002  
  609.00  6.5480E-002  
  609.50  6.5268E-002  
  610.00  6.4959E-002  
  610.50  6.4497E-002  
  611.00  6.4137E-002  
  611.50  6.3998E-002  
  612.00  6.3924E-002  
  612.50  6.3688E-002  
  613.00  6.3275E-002  
  613.50  6.2893E-002  
  614.00  6.2584E-002  
  614.50  6.2312E-002  
  615.00  6.2022E-002  
  615.50  6.1740E-002  
  616.00  6.1324E-002  
  616.50  6.0901E-002  
  617.00  6.0556E-002  
  617.50  6.0302E-002  
  618.00  6.0011E-002  
  618.50  5.9588E-002  
  619.00  5.9115E-002  
  619.50  5.8717E-002  
  620.00  5.8459E-002  
  620.50  5.8295E-002  
  621.00  5.8127E-002  
  621.50  5.7821E-002  
  622.00  5.7471E-002  
  622.50  5.6973E-002  
  623.00  5.6537E-002  
  623.50  5.6105E-002  
  624.00  5.5870E-002  
  624.50  5.5619E-002  
  625.00  5.5325E-002  
  625.50  5.4870E-002  
  626.00  5.4446E-002  
  626.50  5.4001E-002  
  627.00  5.3620E-002  
  627.50  5.3158E-002  
  628.00  5.2793E-002  
  628.50  5.2405E-002  
  629.00  5.1998E-002  
  629.50  5.1611E-002  
  630.00  5.1416E-002  
  630.50  5.1181E-002  
  631.00  5.0842E-002  
  631.50  5.0420E-002  
  632.00  5.0013E-002  
  632.50  4.9607E-002  
  633.00  4.9175E-002  
  633.50  4.8889E-002  
  634.00  4.8688E-002  
  634.50  4.8442E-002  
  635.00  4.8004E-002  
  635.50  4.7532E-002  
  636.00  4.7082E-002  
  636.50  4.6720E-002  
  637.00  4.6340E-002  
  637.50  4.5957E-002  
  638.00  4.5647E-002  
  638.50  4.5341E-002  
  639.00  4.4894E-002  
  639.50  4.4442E-002  
  640.00  4.4106E-002  
  640.50  4.3834E-002  
  641.00  4.3538E-002  
  641.50  4.3190E-002  
  642.00  4.2837E-002  
  642.50  4.2502E-002  
  643.00  4.2054E-002  
  643.50  4.1688E-002  
  644.00  4.1344E-002  
  644.50  4.1076E-002  
  645.00  4.0790E-002  
  645.50  4.0351E-002  
  646.00  3.9885E-002  
  646.50  3.9467E-002  
  647.00  3.9150E-002  
  647.50  3.8770E-002  
  648.00  3.8370E-002  
  648.50  3.8063E-002  
  649.00  3.7772E-002  
  649.50  3.7526E-002  
  650.00  3.7105E-002  
  650.50  3.6716E-002  
  651.00  3.6298E-002  
  651.50  3.5945E-002  
  652.00  3.5640E-002  
  652.50  3.5222E-002  
  653.00  3.4740E-002  
  653.50  3.4223E-002  
  654.00  3.3857E-002  
  654.50  3.3580E-002  
  655.00  3.3264E-002  
  655.50  3.2906E-002  
  656.00  3.2545E-002  
  656.50  3.2314E-002  
  657.00  3.2007E-002  
  657.50  3.1682E-002  
  658.00  3.1235E-002  
  658.50  3.0866E-002  
  659.00  3.0410E-002  
  659.50  3.0082E-002  
  660.00  2.9760E-002  
  660.50  2.9492E-002  
  661.00  2.9128E-002  
  661.50  2.8672E-002  
  662.00  2.8296E-002  
  662.50  2.8021E-002  
  663.00  2.7897E-002  
  663.50  2.7650E-002  
  664.00  2.7340E-002  
  664.50  2.6922E-002  
  665.00  2.6635E-002  
  665.50  2.6265E-002  
  666.00  2.5905E-002  
  666.50  2.5487E-002  
  667.00  2.5145E-002  
  667.50  2.4890E-002  
  668.00  2.4595E-002  
  668.50  2.4334E-002  
  669.00  2.4029E-002  
  669.50  2.3756E-002  
  670.00  2.3382E-002  
  670.50  2.3007E-002  
  671.00  2.2769E-002  
  671.50  2.2586E-002  
  672.00  2.2377E-002  
  672.50  2.2059E-002  
  673.00  2.1693E-002  
  673.50  2.1376E-002  
  674.00  2.1064E-002  
  674.50  2.0792E-002  
  675.00  2.0440E-002  
  675.50  2.0146E-002  
  676.00  1.9896E-002  
  676.50  1.9646E-002  
  677.00  1.9419E-002  
  677.50  1.9181E-002  
  678.00  1.8878E-002  
  678.50  1.8538E-002  
  679.00  1.8189E-002  
