
# From lspdd.org
# 
# Name: DELKEELytePro7Philips KEELytePro7 Extérieur
# Indice spectral Valeur 
# MSI 0.39 
# SLI 0.53 
# IPI 0.63 
# Pourcentage de bleu 24.1 
# Caractéristique Valeur 
# CCT calculée (K) 3603 
# CCT du fabricant (K) 4000 
# Tension (V) 120 
# Puissance (W) 13.0 
# Efficacité lumineuse (Lum/W) 43.0 
#
# Image: '/app/system/img_2s/2717/medium_image2.JPG?1464613487'
# Image: '/app/system/img_1s/2717/medium_image1.JPG?1464613470'
# 

  273.00  0.0000E+000  
  273.50  0.0000E+000  
  274.00  0.0000E+000  
  274.50  0.0000E+000  
  275.00  0.0000E+000  
  275.50  0.0000E+000  
  276.00  0.0000E+000  
  276.50  0.0000E+000  
  277.00  0.0000E+000  
  277.50  0.0000E+000  
  278.00  0.0000E+000  
  278.50  0.0000E+000  
  279.00  0.0000E+000  
  279.50  0.0000E+000  
  280.00  0.0000E+000  
  280.50  0.0000E+000  
  281.00  0.0000E+000  
  281.50  0.0000E+000  
  282.00  0.0000E+000  
  282.50  0.0000E+000  
  283.00  0.0000E+000  
  283.50  0.0000E+000  
  284.00  0.0000E+000  
  284.50  0.0000E+000  
  285.00  0.0000E+000  
  285.50  0.0000E+000  
  286.00  0.0000E+000  
  286.50  0.0000E+000  
  287.00  0.0000E+000  
  287.50  0.0000E+000  
  288.00  0.0000E+000  
  288.50  0.0000E+000  
  289.00  0.0000E+000  
  289.50  0.0000E+000  
  290.00  0.0000E+000  
  290.50  0.0000E+000  
  291.00  0.0000E+000  
  291.50  0.0000E+000  
  292.00  0.0000E+000  
  292.50  0.0000E+000  
  293.00  0.0000E+000  
  293.50  0.0000E+000  
  294.00  0.0000E+000  
  294.50  0.0000E+000  
  295.00  0.0000E+000  
  295.50  0.0000E+000  
  296.00  0.0000E+000  
  296.50  0.0000E+000  
  297.00  0.0000E+000  
  297.50  0.0000E+000  
  298.00  0.0000E+000  
  298.50  0.0000E+000  
  299.00  0.0000E+000  
  299.50  0.0000E+000  
  300.00  0.0000E+000  
  300.50  0.0000E+000  
  301.00  0.0000E+000  
  301.50  0.0000E+000  
  302.00  0.0000E+000  
  302.50  0.0000E+000  
  303.00  0.0000E+000  
  303.50  0.0000E+000  
  304.00  0.0000E+000  
  304.50  0.0000E+000  
  305.00  0.0000E+000  
  305.50  0.0000E+000  
  306.00  0.0000E+000  
  306.50  0.0000E+000  
  307.00  0.0000E+000  
  307.50  0.0000E+000  
  308.00  0.0000E+000  
  308.50  0.0000E+000  
  309.00  0.0000E+000  
  309.50  0.0000E+000  
  310.00  0.0000E+000  
  310.50  0.0000E+000  
  311.00  0.0000E+000  
  311.50  0.0000E+000  
  312.00  0.0000E+000  
  312.50  0.0000E+000  
  313.00  0.0000E+000  
  313.50  0.0000E+000  
  314.00  0.0000E+000  
  314.50  0.0000E+000  
  315.00  0.0000E+000  
  315.50  0.0000E+000  
  316.00  0.0000E+000  
  316.50  0.0000E+000  
  317.00  0.0000E+000  
  317.50  0.0000E+000  
  318.00  8.8384E-006  
  318.50  6.1442E-005  
  319.00  6.8497E-005  
  319.50  2.7689E-005  
  320.00  4.7143E-006  
  320.50  0.0000E+000  
  321.00  0.0000E+000  
  321.50  0.0000E+000  
  322.00  0.0000E+000  
  322.50  0.0000E+000  
  323.00  0.0000E+000  
  323.50  0.0000E+000  
  324.00  0.0000E+000  
  324.50  0.0000E+000  
  325.00  1.3771E-005  
  325.50  0.0000E+000  
  326.00  8.0010E-006  
  326.50  2.3952E-006  
  327.00  0.0000E+000  
  327.50  2.0637E-006  
  328.00  8.2201E-007  
  328.50  4.6419E-005  
  329.00  6.1007E-005  
  329.50  5.6547E-005  
  330.00  7.1856E-005  
  330.50  6.5092E-005  
  331.00  2.2022E-005  
  331.50  3.9192E-005  
  332.00  2.2587E-005  
  332.50  0.0000E+000  
  333.00  0.0000E+000  
  333.50  0.0000E+000  
  334.00  0.0000E+000  
  334.50  6.3032E-005  
  335.00  8.3333E-005  
  335.50  1.1899E-004  
  336.00  1.1769E-004  
  336.50  5.2283E-005  
  337.00  5.1406E-005  
  337.50  4.1741E-005  
  338.00  0.0000E+000  
  338.50  0.0000E+000  
  339.00  0.0000E+000  
  339.50  0.0000E+000  
  340.00  0.0000E+000  
  340.50  0.0000E+000  
  341.00  4.5864E-006  
  341.50  4.5192E-005  
  342.00  1.2688E-004  
  342.50  1.4013E-004  
  343.00  1.0142E-004  
  343.50  3.0832E-006  
  344.00  0.0000E+000  
  344.50  0.0000E+000  
  345.00  0.0000E+000  
  345.50  4.7221E-005  
  346.00  5.2397E-005  
  346.50  6.1014E-005  
  347.00  2.3920E-005  
  347.50  0.0000E+000  
  348.00  0.0000E+000  
  348.50  0.0000E+000  
  349.00  0.0000E+000  
  349.50  4.2433E-005  
  350.00  1.5705E-004  
  350.50  1.6216E-004  
  351.00  1.4030E-004  
  351.50  1.4367E-004  
  352.00  2.1196E-004  
  352.50  2.0410E-004  
  353.00  1.6551E-004  
  353.50  1.0445E-004  
  354.00  0.0000E+000  
  354.50  1.4773E-005  
  355.00  2.5723E-005  
  355.50  3.5837E-005  
  356.00  7.5554E-005  
  356.50  5.2624E-005  
  357.00  5.9075E-005  
  357.50  8.2161E-005  
  358.00  1.0183E-004  
  358.50  1.4744E-004  
  359.00  1.2778E-004  
  359.50  1.0327E-004  
  360.00  1.1715E-004  
  360.50  1.0356E-004  
  361.00  7.7977E-005  
  361.50  5.8336E-005  
  362.00  4.8956E-005  
  362.50  8.7061E-005  
  363.00  1.6448E-004  
  363.50  2.2933E-004  
  364.00  2.4863E-004  
  364.50  2.3889E-004  
  365.00  2.1221E-004  
  365.50  1.5544E-004  
  366.00  7.8645E-005  
  366.50  3.6010E-005  
  367.00  0.0000E+000  
  367.50  3.2408E-006  
  368.00  6.1448E-005  
  368.50  1.1519E-004  
  369.00  1.6759E-004  
  369.50  2.0585E-004  
  370.00  1.6358E-004  
  370.50  1.8392E-004  
  371.00  1.8102E-004  
  371.50  1.9513E-004  
  372.00  2.4830E-004  
  372.50  2.5038E-004  
  373.00  2.3785E-004  
  373.50  1.8508E-004  
  374.00  1.1598E-004  
  374.50  1.0647E-004  
  375.00  1.0467E-004  
  375.50  1.2789E-004  
  376.00  1.0294E-004  
  376.50  1.5249E-004  
  377.00  2.3671E-004  
  377.50  2.9205E-004  
  378.00  3.6806E-004  
  378.50  3.4810E-004  
  379.00  3.3436E-004  
  379.50  3.4272E-004  
  380.00  3.3576E-004  
  380.50  3.4439E-004  
  381.00  3.2949E-004  
  381.50  2.2237E-004  
  382.00  1.7136E-004  
  382.50  1.7748E-004  
  383.00  2.6443E-004  
  383.50  3.2713E-004  
  384.00  3.2162E-004  
  384.50  2.2532E-004  
  385.00  2.0856E-004  
  385.50  2.7089E-004  
  386.00  2.8963E-004  
  386.50  3.2263E-004  
  387.00  2.7386E-004  
  387.50  2.5137E-004  
  388.00  3.4791E-004  
  388.50  3.9011E-004  
  389.00  4.3677E-004  
  389.50  5.1303E-004  
  390.00  5.4524E-004  
  390.50  5.7831E-004  
  391.00  6.4622E-004  
  391.50  6.5049E-004  
  392.00  6.6073E-004  
  392.50  6.5690E-004  
  393.00  6.3320E-004  
  393.50  6.8086E-004  
  394.00  7.4385E-004  
  394.50  7.5753E-004  
  395.00  7.4818E-004  
  395.50  7.4802E-004  
  396.00  7.9806E-004  
  396.50  9.1955E-004  
  397.00  1.0233E-003  
  397.50  1.0482E-003  
  398.00  1.0897E-003  
  398.50  1.1127E-003  
  399.00  1.1089E-003  
  399.50  1.1195E-003  
  400.00  1.1699E-003  
  400.50  1.2847E-003  
  401.00  1.4091E-003  
  401.50  1.5177E-003  
  402.00  1.5966E-003  
  402.50  1.7166E-003  
  403.00  1.8518E-003  
  403.50  2.0116E-003  
  404.00  2.1806E-003  
  404.50  2.2719E-003  
  405.00  2.3623E-003  
  405.50  2.4930E-003  
  406.00  2.6239E-003  
  406.50  2.8333E-003  
  407.00  3.0459E-003  
  407.50  3.2580E-003  
  408.00  3.5774E-003  
  408.50  3.9237E-003  
  409.00  4.3203E-003  
  409.50  4.7595E-003  
  410.00  5.1969E-003  
  410.50  5.6703E-003  
  411.00  6.1801E-003  
  411.50  6.7912E-003  
  412.00  7.5054E-003  
  412.50  8.2031E-003  
  413.00  8.9384E-003  
  413.50  9.7351E-003  
  414.00  1.0631E-002  
  414.50  1.1769E-002  
  415.00  1.3069E-002  
  415.50  1.4391E-002  
  416.00  1.5852E-002  
  416.50  1.7250E-002  
  417.00  1.8781E-002  
  417.50  2.0409E-002  
  418.00  2.2179E-002  
  418.50  2.4103E-002  
  419.00  2.6177E-002  
  419.50  2.8260E-002  
  420.00  3.0362E-002  
  420.50  3.2488E-002  
  421.00  3.4802E-002  
  421.50  3.7226E-002  
  422.00  3.9746E-002  
  422.50  4.2049E-002  
  423.00  4.4449E-002  
  423.50  4.6958E-002  
  424.00  4.9618E-002  
  424.50  5.2519E-002  
  425.00  5.5041E-002  
  425.50  5.7504E-002  
  426.00  5.9899E-002  
  426.50  6.2215E-002  
  427.00  6.4556E-002  
  427.50  6.6730E-002  
  428.00  6.8959E-002  
  428.50  7.1492E-002  
  429.00  7.4075E-002  
  429.50  7.6430E-002  
  430.00  7.8554E-002  
  430.50  8.0471E-002  
  431.00  8.2362E-002  
  431.50  8.4271E-002  
  432.00  8.6069E-002  
  432.50  8.8032E-002  
  433.00  9.0053E-002  
  433.50  9.2353E-002  
  434.00  9.4626E-002  
  434.50  9.6446E-002  
  435.00  9.7825E-002  
  435.50  9.9137E-002  
  436.00  1.0057E-001  
  436.50  1.0215E-001  
  437.00  1.0348E-001  
  437.50  1.0486E-001  
  438.00  1.0589E-001  
  438.50  1.0740E-001  
  439.00  1.0872E-001  
  439.50  1.1008E-001  
  440.00  1.1132E-001  
  440.50  1.1223E-001  
  441.00  1.1297E-001  
  441.50  1.1353E-001  
  442.00  1.1447E-001  
  442.50  1.1505E-001  
  443.00  1.1525E-001  
  443.50  1.1492E-001  
  444.00  1.1437E-001  
  444.50  1.1401E-001  
  445.00  1.1340E-001  
  445.50  1.1264E-001  
  446.00  1.1114E-001  
  446.50  1.0922E-001  
  447.00  1.0709E-001  
  447.50  1.0485E-001  
  448.00  1.0226E-001  
  448.50  9.9435E-002  
  449.00  9.6434E-002  
  449.50  9.3345E-002  
  450.00  8.9606E-002  
  450.50  8.5745E-002  
  451.00  8.1597E-002  
  451.50  7.7711E-002  
  452.00  7.4086E-002  
  452.50  7.0404E-002  
  453.00  6.6875E-002  
  453.50  6.3256E-002  
  454.00  5.9681E-002  
  454.50  5.6172E-002  
  455.00  5.2873E-002  
  455.50  4.9751E-002  
  456.00  4.6897E-002  
  456.50  4.4188E-002  
  457.00  4.1781E-002  
  457.50  3.9429E-002  
  458.00  3.7247E-002  
  458.50  3.5372E-002  
  459.00  3.3654E-002  
  459.50  3.2010E-002  
  460.00  3.0557E-002  
  460.50  2.9153E-002  
  461.00  2.7913E-002  
  461.50  2.6828E-002  
  462.00  2.5782E-002  
  462.50  2.4888E-002  
  463.00  2.4080E-002  
  463.50  2.3207E-002  
  464.00  2.2447E-002  
  464.50  2.1726E-002  
  465.00  2.1086E-002  
  465.50  2.0454E-002  
  466.00  1.9772E-002  
  466.50  1.9128E-002  
  467.00  1.8594E-002  
  467.50  1.8169E-002  
  468.00  1.7795E-002  
  468.50  1.7364E-002  
  469.00  1.6853E-002  
  469.50  1.6322E-002  
  470.00  1.5912E-002  
  470.50  1.5580E-002  
  471.00  1.5194E-002  
  471.50  1.4771E-002  
  472.00  1.4328E-002  
  472.50  1.3954E-002  
  473.00  1.3624E-002  
  473.50  1.3305E-002  
  474.00  1.3004E-002  
  474.50  1.2780E-002  
  475.00  1.2599E-002  
  475.50  1.2411E-002  
  476.00  1.2200E-002  
  476.50  1.1997E-002  
  477.00  1.1842E-002  
  477.50  1.1720E-002  
  478.00  1.1647E-002  
  478.50  1.1582E-002  
  479.00  1.1531E-002  
  479.50  1.1447E-002  
  480.00  1.1364E-002  
  480.50  1.1305E-002  
  481.00  1.1274E-002  
  481.50  1.1294E-002  
  482.00  1.1288E-002  
  482.50  1.1289E-002  
  483.00  1.1287E-002  
  483.50  1.1254E-002  
  484.00  1.1261E-002  
  484.50  1.1266E-002  
  485.00  1.1320E-002  
  485.50  1.1379E-002  
  486.00  1.1476E-002  
  486.50  1.1624E-002  
  487.00  1.1763E-002  
  487.50  1.1877E-002  
  488.00  1.1988E-002  
  488.50  1.2154E-002  
  489.00  1.2412E-002  
  489.50  1.2691E-002  
  490.00  1.2924E-002  
  490.50  1.3180E-002  
  491.00  1.3494E-002  
  491.50  1.3879E-002  
  492.00  1.4339E-002  
  492.50  1.4761E-002  
  493.00  1.5189E-002  
  493.50  1.5640E-002  
  494.00  1.6071E-002  
  494.50  1.6557E-002  
  495.00  1.7168E-002  
  495.50  1.7867E-002  
  496.00  1.8654E-002  
  496.50  1.9359E-002  
  497.00  2.0047E-002  
  497.50  2.0751E-002  
  498.00  2.1551E-002  
  498.50  2.2448E-002  
  499.00  2.3366E-002  
  499.50  2.4264E-002  
  500.00  2.5172E-002  
  500.50  2.6117E-002  
  501.00  2.7155E-002  
  501.50  2.8302E-002  
  502.00  2.9473E-002  
  502.50  3.0682E-002  
  503.00  3.1892E-002  
  503.50  3.3043E-002  
  504.00  3.4270E-002  
  504.50  3.5491E-002  
  505.00  3.6757E-002  
  505.50  3.8110E-002  
  506.00  3.9471E-002  
  506.50  4.0879E-002  
  507.00  4.2353E-002  
  507.50  4.3804E-002  
  508.00  4.5366E-002  
  508.50  4.6835E-002  
  509.00  4.8316E-002  
  509.50  4.9767E-002  
  510.00  5.1292E-002  
  510.50  5.2971E-002  
  511.00  5.4679E-002  
  511.50  5.6363E-002  
  512.00  5.8035E-002  
  512.50  5.9696E-002  
  513.00  6.1276E-002  
  513.50  6.2773E-002  
  514.00  6.4232E-002  
  514.50  6.5860E-002  
  515.00  6.7522E-002  
  515.50  6.9154E-002  
  516.00  7.0730E-002  
  516.50  7.2388E-002  
  517.00  7.4097E-002  
  517.50  7.5698E-002  
  518.00  7.7208E-002  
  518.50  7.8732E-002  
  519.00  8.0210E-002  
  519.50  8.1699E-002  
  520.00  8.3145E-002  
  520.50  8.4653E-002  
  521.00  8.6175E-002  
  521.50  8.7617E-002  
  522.00  8.8881E-002  
  522.50  9.0161E-002  
  523.00  9.1623E-002  
  523.50  9.3138E-002  
  524.00  9.4602E-002  
  524.50  9.5826E-002  
  525.00  9.7136E-002  
  525.50  9.8535E-002  
  526.00  9.9921E-002  
  526.50  1.0116E-001  
  527.00  1.0230E-001  
  527.50  1.0347E-001  
  528.00  1.0469E-001  
  528.50  1.0592E-001  
  529.00  1.0709E-001  
  529.50  1.0816E-001  
  530.00  1.0932E-001  
  530.50  1.1036E-001  
  531.00  1.1135E-001  
  531.50  1.1231E-001  
  532.00  1.1347E-001  
  532.50  1.1464E-001  
  533.00  1.1568E-001  
  533.50  1.1655E-001  
  534.00  1.1746E-001  
  534.50  1.1843E-001  
  535.00  1.1934E-001  
  535.50  1.2012E-001  
  536.00  1.2099E-001  
  536.50  1.2186E-001  
  537.00  1.2267E-001  
  537.50  1.2342E-001  
  538.00  1.2426E-001  
  538.50  1.2497E-001  
  539.00  1.2570E-001  
  539.50  1.2621E-001  
  540.00  1.2690E-001  
  540.50  1.2768E-001  
  541.00  1.2846E-001  
  541.50  1.2917E-001  
  542.00  1.2980E-001  
  542.50  1.3037E-001  
  543.00  1.3095E-001  
  543.50  1.3142E-001  
  544.00  1.3193E-001  
  544.50  1.3251E-001  
  545.00  1.3314E-001  
  545.50  1.3373E-001  
  546.00  1.3416E-001  
  546.50  1.3458E-001  
  547.00  1.3507E-001  
  547.50  1.3559E-001  
  548.00  1.3603E-001  
  548.50  1.3652E-001  
  549.00  1.3698E-001  
  549.50  1.3749E-001  
  550.00  1.3788E-001  
  550.50  1.3838E-001  
  551.00  1.3889E-001  
  551.50  1.3946E-001  
  552.00  1.3984E-001  
  552.50  1.4016E-001  
  553.00  1.4035E-001  
  553.50  1.4067E-001  
  554.00  1.4103E-001  
  554.50  1.4148E-001  
  555.00  1.4185E-001  
  555.50  1.4216E-001  
  556.00  1.4250E-001  
  556.50  1.4285E-001  
  557.00  1.4311E-001  
  557.50  1.4335E-001  
  558.00  1.4358E-001  
  558.50  1.4393E-001  
  559.00  1.4421E-001  
  559.50  1.4453E-001  
  560.00  1.4485E-001  
  560.50  1.4512E-001  
  561.00  1.4551E-001  
  561.50  1.4588E-001  
  562.00  1.4622E-001  
  562.50  1.4646E-001  
  563.00  1.4646E-001  
  563.50  1.4653E-001  
  564.00  1.4663E-001  
  564.50  1.4684E-001  
  565.00  1.4717E-001  
  565.50  1.4736E-001  
  566.00  1.4740E-001  
  566.50  1.4725E-001  
  567.00  1.4716E-001  
  567.50  1.4733E-001  
  568.00  1.4761E-001  
  568.50  1.4775E-001  
  569.00  1.4784E-001  
  569.50  1.4796E-001  
  570.00  1.4804E-001  
  570.50  1.4814E-001  
  571.00  1.4814E-001  
  571.50  1.4814E-001  
  572.00  1.4817E-001  
  572.50  1.4814E-001  
  573.00  1.4815E-001  
  573.50  1.4820E-001  
  574.00  1.4816E-001  
  574.50  1.4810E-001  
  575.00  1.4808E-001  
  575.50  1.4809E-001  
  576.00  1.4813E-001  
  576.50  1.4819E-001  
  577.00  1.4816E-001  
  577.50  1.4815E-001  
  578.00  1.4813E-001  
  578.50  1.4828E-001  
  579.00  1.4835E-001  
  579.50  1.4829E-001  
  580.00  1.4809E-001  
  580.50  1.4802E-001  
  581.00  1.4799E-001  
  581.50  1.4793E-001  
  582.00  1.4771E-001  
  582.50  1.4741E-001  
  583.00  1.4721E-001  
  583.50  1.4715E-001  
  584.00  1.4721E-001  
  584.50  1.4729E-001  
  585.00  1.4715E-001  
  585.50  1.4694E-001  
  586.00  1.4670E-001  
  586.50  1.4658E-001  
  587.00  1.4638E-001  
  587.50  1.4620E-001  
  588.00  1.4601E-001  
  588.50  1.4591E-001  
  589.00  1.4587E-001  
  589.50  1.4572E-001  
  590.00  1.4555E-001  
  590.50  1.4557E-001  
  591.00  1.4553E-001  
  591.50  1.4555E-001  
  592.00  1.4526E-001  
  592.50  1.4487E-001  
  593.00  1.4454E-001  
  593.50  1.4419E-001  
  594.00  1.4403E-001  
  594.50  1.4388E-001  
  595.00  1.4364E-001  
  595.50  1.4328E-001  
  596.00  1.4284E-001  
  596.50  1.4246E-001  
  597.00  1.4203E-001  
  597.50  1.4165E-001  
  598.00  1.4141E-001  
  598.50  1.4111E-001  
  599.00  1.4076E-001  
  599.50  1.4026E-001  
  600.00  1.3968E-001  
  600.50  1.3932E-001  
  601.00  1.3893E-001  
  601.50  1.3872E-001  
  602.00  1.3839E-001  
  602.50  1.3804E-001  
  603.00  1.3771E-001  
  603.50  1.3723E-001  
  604.00  1.3690E-001  
  604.50  1.3628E-001  
  605.00  1.3572E-001  
  605.50  1.3516E-001  
  606.00  1.3465E-001  
  606.50  1.3433E-001  
  607.00  1.3383E-001  
  607.50  1.3338E-001  
  608.00  1.3295E-001  
  608.50  1.3263E-001  
  609.00  1.3231E-001  
  609.50  1.3189E-001  
  610.00  1.3132E-001  
  610.50  1.3076E-001  
  611.00  1.3020E-001  
  611.50  1.2984E-001  
  612.00  1.2948E-001  
  612.50  1.2902E-001  
  613.00  1.2846E-001  
  613.50  1.2784E-001  
  614.00  1.2726E-001  
  614.50  1.2677E-001  
  615.00  1.2622E-001  
  615.50  1.2592E-001  
  616.00  1.2549E-001  
  616.50  1.2499E-001  
  617.00  1.2428E-001  
  617.50  1.2348E-001  
  618.00  1.2286E-001  
  618.50  1.2236E-001  
  619.00  1.2185E-001  
  619.50  1.2139E-001  
  620.00  1.2073E-001  
  620.50  1.2029E-001  
  621.00  1.1984E-001  
  621.50  1.1934E-001  
  622.00  1.1887E-001  
  622.50  1.1818E-001  
  623.00  1.1749E-001  
  623.50  1.1672E-001  
  624.00  1.1614E-001  
  624.50  1.1582E-001  
  625.00  1.1546E-001  
  625.50  1.1490E-001  
  626.00  1.1416E-001  
  626.50  1.1360E-001  
  627.00  1.1320E-001  
  627.50  1.1273E-001  
  628.00  1.1212E-001  
  628.50  1.1145E-001  
  629.00  1.1093E-001  
  629.50  1.1036E-001  
  630.00  1.0989E-001  
  630.50  1.0925E-001  
  631.00  1.0852E-001  
  631.50  1.0792E-001  
  632.00  1.0746E-001  
  632.50  1.0703E-001  
  633.00  1.0646E-001  
  633.50  1.0575E-001  
  634.00  1.0513E-001  
  634.50  1.0433E-001  
  635.00  1.0371E-001  
  635.50  1.0301E-001  
  636.00  1.0252E-001  
  636.50  1.0196E-001  
  637.00  1.0149E-001  
  637.50  1.0093E-001  
  638.00  1.0010E-001  
  638.50  9.9375E-002  
  639.00  9.8777E-002  
  639.50  9.8252E-002  
  640.00  9.7645E-002  
  640.50  9.6868E-002  
  641.00  9.6190E-002  
  641.50  9.5568E-002  
  642.00  9.4921E-002  
  642.50  9.4377E-002  
  643.00  9.3732E-002  
  643.50  9.3112E-002  
  644.00  9.2392E-002  
  644.50  9.1665E-002  
  645.00  9.0973E-002  
  645.50  9.0328E-002  
  646.00  8.9680E-002  
  646.50  8.9157E-002  
  647.00  8.8508E-002  
  647.50  8.7788E-002  
  648.00  8.7018E-002  
  648.50  8.6411E-002  
  649.00  8.5910E-002  
  649.50  8.5455E-002  
  650.00  8.4831E-002  
  650.50  8.4180E-002  
  651.00  8.3433E-002  
  651.50  8.2751E-002  
  652.00  8.2130E-002  
  652.50  8.1356E-002  
  653.00  8.0547E-002  
  653.50  7.9700E-002  
  654.00  7.8974E-002  
  654.50  7.8295E-002  
  655.00  7.7549E-002  
  655.50  7.6807E-002  
  656.00  7.6100E-002  
  656.50  7.5549E-002  
  657.00  7.4864E-002  
  657.50  7.4184E-002  
  658.00  7.3523E-002  
  658.50  7.3074E-002  
  659.00  7.2508E-002  
  659.50  7.1875E-002  
  660.00  7.1071E-002  
  660.50  7.0218E-002  
  661.00  6.9379E-002  
  661.50  6.8751E-002  
  662.00  6.8207E-002  
  662.50  6.7725E-002  
  663.00  6.7148E-002  
  663.50  6.6472E-002  
  664.00  6.5644E-002  
  664.50  6.4745E-002  
  665.00  6.4090E-002  
  665.50  6.3607E-002  
  666.00  6.3170E-002  
  666.50  6.2602E-002  
  667.00  6.1926E-002  
  667.50  6.1254E-002  
  668.00  6.0611E-002  
  668.50  6.0055E-002  
  669.00  5.9512E-002  
  669.50  5.8874E-002  
  670.00  5.8230E-002  
  670.50  5.7556E-002  
  671.00  5.6977E-002  
  671.50  5.6339E-002  
  672.00  5.5806E-002  
  672.50  5.5305E-002  
  673.00  5.4776E-002  
  673.50  5.4232E-002  
  674.00  5.3554E-002  
  674.50  5.2862E-002  
  675.00  5.2201E-002  
  675.50  5.1677E-002  
  676.00  5.1216E-002  
  676.50  5.0632E-002  
  677.00  4.9926E-002  
  677.50  4.9236E-002  
  678.00  4.8639E-002  
  678.50  4.8070E-002  
  679.00  4.7466E-002  
  679.50  4.6890E-002  
