
# From lspdd.org
# 
# Name: DEL GE Relax Domestique
# Indice spectral Valeur 
# MSI 0.27 
# SLI 0.48 
# IPI 0.72 
# Pourcentage de bleu 16.6 
# Caractéristique Valeur 
# CCT calculée (K) 2557 
# CCT du fabricant (K) 2700 
# Tension (V) 120 
# Puissance (W) 8.5 
# Efficacité lumineuse (Lum/W) 94.0 
#
# Image: '/app/system/img_1s/2739/medium_image1.JPG?1612236494'
# 

  273.00  0.0000E+000  
  273.50  0.0000E+000  
  274.00  0.0000E+000  
  274.50  0.0000E+000  
  275.00  0.0000E+000  
  275.50  0.0000E+000  
  276.00  0.0000E+000  
  276.50  0.0000E+000  
  277.00  0.0000E+000  
  277.50  0.0000E+000  
  278.00  0.0000E+000  
  278.50  0.0000E+000  
  279.00  0.0000E+000  
  279.50  0.0000E+000  
  280.00  0.0000E+000  
  280.50  0.0000E+000  
  281.00  0.0000E+000  
  281.50  0.0000E+000  
  282.00  0.0000E+000  
  282.50  0.0000E+000  
  283.00  0.0000E+000  
  283.50  0.0000E+000  
  284.00  0.0000E+000  
  284.50  0.0000E+000  
  285.00  0.0000E+000  
  285.50  0.0000E+000  
  286.00  0.0000E+000  
  286.50  0.0000E+000  
  287.00  0.0000E+000  
  287.50  0.0000E+000  
  288.00  0.0000E+000  
  288.50  0.0000E+000  
  289.00  0.0000E+000  
  289.50  0.0000E+000  
  290.00  0.0000E+000  
  290.50  0.0000E+000  
  291.00  0.0000E+000  
  291.50  0.0000E+000  
  292.00  0.0000E+000  
  292.50  0.0000E+000  
  293.00  0.0000E+000  
  293.50  0.0000E+000  
  294.00  0.0000E+000  
  294.50  0.0000E+000  
  295.00  0.0000E+000  
  295.50  0.0000E+000  
  296.00  0.0000E+000  
  296.50  0.0000E+000  
  297.00  0.0000E+000  
  297.50  0.0000E+000  
  298.00  0.0000E+000  
  298.50  0.0000E+000  
  299.00  0.0000E+000  
  299.50  0.0000E+000  
  300.00  0.0000E+000  
  300.50  0.0000E+000  
  301.00  0.0000E+000  
  301.50  0.0000E+000  
  302.00  0.0000E+000  
  302.50  5.0274E-006  
  303.00  2.4410E-004  
  303.50  1.9629E-004  
  304.00  1.2168E-005  
  304.50  0.0000E+000  
  305.00  0.0000E+000  
  305.50  0.0000E+000  
  306.00  3.5297E-005  
  306.50  0.0000E+000  
  307.00  0.0000E+000  
  307.50  0.0000E+000  
  308.00  0.0000E+000  
  308.50  5.8594E-005  
  309.00  3.2230E-004  
  309.50  5.0711E-004  
  310.00  4.2567E-004  
  310.50  2.9160E-004  
  311.00  1.0832E-004  
  311.50  1.9696E-005  
  312.00  2.1443E-004  
  312.50  5.1265E-004  
  313.00  6.1727E-004  
  313.50  6.0176E-004  
  314.00  3.9768E-004  
  314.50  3.5849E-004  
  315.00  3.5407E-004  
  315.50  2.0251E-004  
  316.00  3.9016E-005  
  316.50  0.0000E+000  
  317.00  0.0000E+000  
  317.50  1.3061E-005  
  318.00  1.7860E-004  
  318.50  2.3341E-004  
  319.00  1.8329E-004  
  319.50  1.2020E-004  
  320.00  0.0000E+000  
  320.50  0.0000E+000  
  321.00  0.0000E+000  
  321.50  0.0000E+000  
  322.00  0.0000E+000  
  322.50  2.4600E-004  
  323.00  7.1634E-004  
  323.50  1.0380E-003  
  324.00  8.9228E-004  
  324.50  3.2306E-004  
  325.00  1.6272E-005  
  325.50  0.0000E+000  
  326.00  9.8194E-006  
  326.50  1.0637E-004  
  327.00  2.5665E-004  
  327.50  3.0578E-004  
  328.00  1.4487E-004  
  328.50  4.7881E-005  
  329.00  9.4455E-006  
  329.50  0.0000E+000  
  330.00  1.0013E-004  
  330.50  1.0515E-004  
  331.00  7.5583E-005  
  331.50  2.2121E-004  
  332.00  4.1852E-004  
  332.50  5.3070E-004  
  333.00  4.0054E-004  
  333.50  2.2175E-005  
  334.00  0.0000E+000  
  334.50  0.0000E+000  
  335.00  0.0000E+000  
  335.50  1.0871E-004  
  336.00  1.9842E-004  
  336.50  4.6505E-004  
  337.00  5.2392E-004  
  337.50  4.6585E-004  
  338.00  4.9435E-004  
  338.50  1.6320E-004  
  339.00  2.5117E-005  
  339.50  4.0937E-005  
  340.00  8.3458E-005  
  340.50  1.1235E-004  
  341.00  6.9639E-005  
  341.50  0.0000E+000  
  342.00  1.8967E-006  
  342.50  3.1726E-005  
  343.00  1.6636E-004  
  343.50  3.2814E-004  
  344.00  1.8532E-004  
  344.50  6.4030E-005  
  345.00  5.0642E-007  
  345.50  0.0000E+000  
  346.00  0.0000E+000  
  346.50  0.0000E+000  
  347.00  0.0000E+000  
  347.50  0.0000E+000  
  348.00  0.0000E+000  
  348.50  2.6136E-005  
  349.00  2.2024E-004  
  349.50  2.2030E-004  
  350.00  3.3650E-004  
  350.50  3.7016E-004  
  351.00  1.5884E-004  
  351.50  6.8592E-005  
  352.00  3.4125E-006  
  352.50  1.4103E-006  
  353.00  1.6675E-004  
  353.50  4.5044E-004  
  354.00  5.0786E-004  
  354.50  4.1690E-004  
  355.00  3.0622E-004  
  355.50  2.0408E-004  
  356.00  1.0982E-004  
  356.50  3.3768E-004  
  357.00  5.0204E-004  
  357.50  5.3572E-004  
  358.00  3.6793E-004  
  358.50  1.7272E-004  
  359.00  1.2523E-004  
  359.50  2.0346E-004  
  360.00  3.1976E-004  
  360.50  3.1921E-004  
  361.00  5.1552E-004  
  361.50  7.4580E-004  
  362.00  1.0512E-003  
  362.50  7.7541E-004  
  363.00  5.1860E-004  
  363.50  3.4490E-004  
  364.00  5.0231E-004  
  364.50  9.0333E-004  
  365.00  1.0355E-003  
  365.50  8.7669E-004  
  366.00  6.0987E-004  
  366.50  3.7722E-004  
  367.00  2.2981E-004  
  367.50  2.7682E-004  
  368.00  3.3069E-004  
  368.50  4.2990E-004  
  369.00  3.6313E-004  
  369.50  3.2594E-004  
  370.00  3.2941E-004  
  370.50  4.8248E-004  
  371.00  3.5479E-004  
  371.50  0.0000E+000  
  372.00  0.0000E+000  
  372.50  0.0000E+000  
  373.00  9.7546E-005  
  373.50  5.4842E-004  
  374.00  7.9288E-004  
  374.50  8.3590E-004  
  375.00  6.0697E-004  
  375.50  2.5551E-004  
  376.00  1.1671E-004  
  376.50  2.4148E-004  
  377.00  5.4765E-004  
  377.50  9.3799E-004  
  378.00  1.1713E-003  
  378.50  9.9882E-004  
  379.00  9.1120E-004  
  379.50  1.0169E-003  
  380.00  8.5330E-004  
  380.50  7.0515E-004  
  381.00  5.5570E-004  
  381.50  3.7669E-004  
  382.00  5.1057E-004  
  382.50  5.7533E-004  
  383.00  4.4135E-004  
  383.50  3.7418E-004  
  384.00  4.2245E-004  
  384.50  4.6571E-004  
  385.00  5.7920E-004  
  385.50  7.2061E-004  
  386.00  7.9759E-004  
  386.50  8.6140E-004  
  387.00  8.0848E-004  
  387.50  7.7648E-004  
  388.00  7.9848E-004  
  388.50  9.1618E-004  
  389.00  9.3916E-004  
  389.50  7.1070E-004  
  390.00  4.9880E-004  
  390.50  3.5245E-004  
  391.00  1.0406E-004  
  391.50  2.4542E-006  
  392.00  0.0000E+000  
  392.50  9.8131E-005  
  393.00  4.4313E-004  
  393.50  5.2017E-004  
  394.00  4.7878E-004  
  394.50  4.0213E-004  
  395.00  4.5257E-004  
  395.50  7.3145E-004  
  396.00  9.5057E-004  
  396.50  9.6321E-004  
  397.00  7.6118E-004  
  397.50  3.5023E-004  
  398.00  3.3801E-005  
  398.50  1.7081E-006  
  399.00  2.8322E-004  
  399.50  6.2906E-004  
  400.00  8.4183E-004  
  400.50  9.9225E-004  
  401.00  9.7502E-004  
  401.50  8.2973E-004  
  402.00  7.5002E-004  
  402.50  7.1579E-004  
  403.00  6.4961E-004  
  403.50  8.4537E-004  
  404.00  8.9231E-004  
  404.50  9.6419E-004  
  405.00  1.0699E-003  
  405.50  9.6978E-004  
  406.00  7.6773E-004  
  406.50  6.2027E-004  
  407.00  8.0283E-004  
  407.50  1.0839E-003  
  408.00  1.5855E-003  
  408.50  1.9387E-003  
  409.00  1.9738E-003  
  409.50  1.9393E-003  
  410.00  1.9634E-003  
  410.50  2.1206E-003  
  411.00  2.2959E-003  
  411.50  2.4709E-003  
  412.00  2.6127E-003  
  412.50  2.5771E-003  
  413.00  2.7445E-003  
  413.50  2.7127E-003  
  414.00  2.6035E-003  
  414.50  2.5795E-003  
  415.00  2.5803E-003  
  415.50  2.9172E-003  
  416.00  3.2907E-003  
  416.50  3.3586E-003  
  417.00  3.2709E-003  
  417.50  3.0496E-003  
  418.00  3.0753E-003  
  418.50  3.2331E-003  
  419.00  3.2525E-003  
  419.50  3.3676E-003  
  420.00  3.5508E-003  
  420.50  3.8544E-003  
  421.00  4.2648E-003  
  421.50  4.7178E-003  
  422.00  4.8606E-003  
  422.50  5.0997E-003  
  423.00  5.3025E-003  
  423.50  5.3614E-003  
  424.00  5.8586E-003  
  424.50  6.1178E-003  
  425.00  6.4030E-003  
  425.50  6.5250E-003  
  426.00  6.6777E-003  
  426.50  6.9904E-003  
  427.00  7.2769E-003  
  427.50  7.6773E-003  
  428.00  7.9439E-003  
  428.50  8.5184E-003  
  429.00  9.0987E-003  
  429.50  9.6079E-003  
  430.00  1.0210E-002  
  430.50  1.0617E-002  
  431.00  1.0865E-002  
  431.50  1.0999E-002  
  432.00  1.1420E-002  
  432.50  1.1855E-002  
  433.00  1.2425E-002  
  433.50  1.3003E-002  
  434.00  1.3350E-002  
  434.50  1.3896E-002  
  435.00  1.4396E-002  
  435.50  1.4979E-002  
  436.00  1.5653E-002  
  436.50  1.6392E-002  
  437.00  1.6976E-002  
  437.50  1.7618E-002  
  438.00  1.8226E-002  
  438.50  1.9068E-002  
  439.00  1.9992E-002  
  439.50  2.0989E-002  
  440.00  2.2145E-002  
  440.50  2.3075E-002  
  441.00  2.4091E-002  
  441.50  2.4928E-002  
  442.00  2.5883E-002  
  442.50  2.7117E-002  
  443.00  2.8470E-002  
  443.50  2.9889E-002  
  444.00  3.0958E-002  
  444.50  3.1947E-002  
  445.00  3.2963E-002  
  445.50  3.3922E-002  
  446.00  3.4784E-002  
  446.50  3.5875E-002  
  447.00  3.7227E-002  
  447.50  3.8710E-002  
  448.00  4.0112E-002  
  448.50  4.1078E-002  
  449.00  4.1645E-002  
  449.50  4.2012E-002  
  450.00  4.2034E-002  
  450.50  4.2200E-002  
  451.00  4.2197E-002  
  451.50  4.2303E-002  
  452.00  4.2301E-002  
  452.50  4.1937E-002  
  453.00  4.1437E-002  
  453.50  4.0589E-002  
  454.00  3.9563E-002  
  454.50  3.8508E-002  
  455.00  3.7367E-002  
  455.50  3.6707E-002  
  456.00  3.6084E-002  
  456.50  3.5637E-002  
  457.00  3.5094E-002  
  457.50  3.4221E-002  
  458.00  3.3308E-002  
  458.50  3.2412E-002  
  459.00  3.1769E-002  
  459.50  3.1253E-002  
  460.00  3.1095E-002  
  460.50  3.0875E-002  
  461.00  3.0757E-002  
  461.50  3.0665E-002  
  462.00  3.0417E-002  
  462.50  3.0186E-002  
  463.00  2.9883E-002  
  463.50  2.9502E-002  
  464.00  2.8888E-002  
  464.50  2.8562E-002  
  465.00  2.8235E-002  
  465.50  2.7899E-002  
  466.00  2.7457E-002  
  466.50  2.7146E-002  
  467.00  2.7155E-002  
  467.50  2.7053E-002  
  468.00  2.6562E-002  
  468.50  2.5842E-002  
  469.00  2.5432E-002  
  469.50  2.5321E-002  
  470.00  2.5403E-002  
  470.50  2.5319E-002  
  471.00  2.5011E-002  
  471.50  2.4466E-002  
  472.00  2.3869E-002  
  472.50  2.3494E-002  
  473.00  2.3438E-002  
  473.50  2.3597E-002  
  474.00  2.3773E-002  
  474.50  2.3878E-002  
  475.00  2.3801E-002  
  475.50  2.3688E-002  
  476.00  2.3708E-002  
  476.50  2.3739E-002  
  477.00  2.3955E-002  
  477.50  2.4094E-002  
  478.00  2.4221E-002  
  478.50  2.4294E-002  
  479.00  2.4399E-002  
  479.50  2.4482E-002  
  480.00  2.4735E-002  
  480.50  2.5131E-002  
  481.00  2.5355E-002  
  481.50  2.5607E-002  
  482.00  2.5752E-002  
  482.50  2.6011E-002  
  483.00  2.6341E-002  
  483.50  2.6707E-002  
  484.00  2.6998E-002  
  484.50  2.7185E-002  
  485.00  2.7513E-002  
  485.50  2.7863E-002  
  486.00  2.8302E-002  
  486.50  2.8738E-002  
  487.00  2.8974E-002  
  487.50  2.9095E-002  
  488.00  2.9466E-002  
  488.50  2.9889E-002  
  489.00  3.0229E-002  
  489.50  3.0637E-002  
  490.00  3.0778E-002  
  490.50  3.1112E-002  
  491.00  3.1563E-002  
  491.50  3.1922E-002  
  492.00  3.2451E-002  
  492.50  3.3007E-002  
  493.00  3.3395E-002  
  493.50  3.3749E-002  
  494.00  3.4006E-002  
  494.50  3.4652E-002  
  495.00  3.5385E-002  
  495.50  3.6034E-002  
  496.00  3.6482E-002  
  496.50  3.6773E-002  
  497.00  3.7131E-002  
  497.50  3.7657E-002  
  498.00  3.8179E-002  
  498.50  3.8791E-002  
  499.00  3.9505E-002  
  499.50  4.0000E-002  
  500.00  4.0383E-002  
  500.50  4.0566E-002  
  501.00  4.0835E-002  
  501.50  4.1043E-002  
  502.00  4.1445E-002  
  502.50  4.1992E-002  
  503.00  4.2782E-002  
  503.50  4.3370E-002  
  504.00  4.3643E-002  
  504.50  4.3902E-002  
  505.00  4.4333E-002  
  505.50  4.4975E-002  
  506.00  4.5411E-002  
  506.50  4.5666E-002  
  507.00  4.5917E-002  
  507.50  4.6428E-002  
  508.00  4.7005E-002  
  508.50  4.7489E-002  
  509.00  4.7830E-002  
  509.50  4.7978E-002  
  510.00  4.8265E-002  
  510.50  4.8712E-002  
  511.00  4.9336E-002  
  511.50  4.9999E-002  
  512.00  5.0561E-002  
  512.50  5.0975E-002  
  513.00  5.1344E-002  
  513.50  5.1704E-002  
  514.00  5.1985E-002  
  514.50  5.2239E-002  
  515.00  5.2488E-002  
  515.50  5.2734E-002  
  516.00  5.3034E-002  
  516.50  5.3247E-002  
  517.00  5.3494E-002  
  517.50  5.3831E-002  
  518.00  5.4364E-002  
  518.50  5.5050E-002  
  519.00  5.5678E-002  
  519.50  5.6051E-002  
  520.00  5.6214E-002  
  520.50  5.6482E-002  
  521.00  5.6899E-002  
  521.50  5.7392E-002  
  522.00  5.7756E-002  
  522.50  5.7978E-002  
  523.00  5.8276E-002  
  523.50  5.8762E-002  
  524.00  5.9145E-002  
  524.50  5.9581E-002  
  525.00  5.9991E-002  
  525.50  6.0439E-002  
  526.00  6.0784E-002  
  526.50  6.1056E-002  
  527.00  6.1302E-002  
  527.50  6.1807E-002  
  528.00  6.2126E-002  
  528.50  6.2555E-002  
  529.00  6.2751E-002  
  529.50  6.3174E-002  
  530.00  6.3653E-002  
  530.50  6.3979E-002  
  531.00  6.4419E-002  
  531.50  6.4840E-002  
  532.00  6.5375E-002  
  532.50  6.5721E-002  
  533.00  6.5747E-002  
  533.50  6.5846E-002  
  534.00  6.6323E-002  
  534.50  6.6927E-002  
  535.00  6.7476E-002  
  535.50  6.7603E-002  
  536.00  6.7767E-002  
  536.50  6.8156E-002  
  537.00  6.8622E-002  
  537.50  6.9152E-002  
  538.00  6.9469E-002  
  538.50  6.9689E-002  
  539.00  7.0050E-002  
  539.50  7.0318E-002  
  540.00  7.0768E-002  
  540.50  7.1111E-002  
  541.00  7.1696E-002  
  541.50  7.2404E-002  
  542.00  7.2821E-002  
  542.50  7.3157E-002  
  543.00  7.3400E-002  
  543.50  7.3826E-002  
  544.00  7.4492E-002  
  544.50  7.5017E-002  
  545.00  7.5456E-002  
  545.50  7.5836E-002  
  546.00  7.6104E-002  
  546.50  7.6480E-002  
  547.00  7.6990E-002  
  547.50  7.7488E-002  
  548.00  7.7774E-002  
  548.50  7.8289E-002  
  549.00  7.8965E-002  
  549.50  7.9775E-002  
  550.00  8.0262E-002  
  550.50  8.0476E-002  
  551.00  8.0806E-002  
  551.50  8.1069E-002  
  552.00  8.1519E-002  
  552.50  8.2063E-002  
  553.00  8.2636E-002  
  553.50  8.3146E-002  
  554.00  8.3480E-002  
  554.50  8.3931E-002  
  555.00  8.4476E-002  
  555.50  8.4955E-002  
  556.00  8.5271E-002  
  556.50  8.5722E-002  
  557.00  8.6274E-002  
  557.50  8.7057E-002  
  558.00  8.7618E-002  
  558.50  8.8187E-002  
  559.00  8.8863E-002  
  559.50  8.9729E-002  
  560.00  9.0642E-002  
  560.50  9.1061E-002  
  561.00  9.1404E-002  
  561.50  9.1960E-002  
  562.00  9.2544E-002  
  562.50  9.3455E-002  
  563.00  9.3865E-002  
  563.50  9.4253E-002  
  564.00  9.4617E-002  
  564.50  9.4987E-002  
  565.00  9.5614E-002  
  565.50  9.6367E-002  
  566.00  9.7065E-002  
  566.50  9.7690E-002  
  567.00  9.8097E-002  
  567.50  9.8648E-002  
  568.00  9.9330E-002  
  568.50  1.0016E-001  
  569.00  1.0086E-001  
  569.50  1.0161E-001  
  570.00  1.0218E-001  
  570.50  1.0287E-001  
  571.00  1.0349E-001  
  571.50  1.0405E-001  
  572.00  1.0476E-001  
  572.50  1.0545E-001  
  573.00  1.0642E-001  
  573.50  1.0720E-001  
  574.00  1.0784E-001  
  574.50  1.0857E-001  
  575.00  1.0933E-001  
  575.50  1.1032E-001  
  576.00  1.1104E-001  
  576.50  1.1140E-001  
  577.00  1.1197E-001  
  577.50  1.1261E-001  
  578.00  1.1364E-001  
  578.50  1.1466E-001  
  579.00  1.1538E-001  
  579.50  1.1637E-001  
  580.00  1.1726E-001  
  580.50  1.1786E-001  
  581.00  1.1873E-001  
  581.50  1.1959E-001  
  582.00  1.2073E-001  
  582.50  1.2155E-001  
  583.00  1.2191E-001  
  583.50  1.2232E-001  
  584.00  1.2314E-001  
  584.50  1.2397E-001  
  585.00  1.2500E-001  
  585.50  1.2574E-001  
  586.00  1.2634E-001  
  586.50  1.2713E-001  
  587.00  1.2782E-001  
  587.50  1.2866E-001  
  588.00  1.2936E-001  
  588.50  1.3018E-001  
  589.00  1.3089E-001  
  589.50  1.3183E-001  
  590.00  1.3237E-001  
  590.50  1.3298E-001  
  591.00  1.3360E-001  
  591.50  1.3455E-001  
  592.00  1.3571E-001  
  592.50  1.3622E-001  
  593.00  1.3681E-001  
  593.50  1.3725E-001  
  594.00  1.3810E-001  
  594.50  1.3900E-001  
  595.00  1.3965E-001  
  595.50  1.4027E-001  
  596.00  1.4094E-001  
  596.50  1.4147E-001  
  597.00  1.4202E-001  
  597.50  1.4224E-001  
  598.00  1.4286E-001  
  598.50  1.4336E-001  
  599.00  1.4406E-001  
  599.50  1.4462E-001  
  600.00  1.4538E-001  
  600.50  1.4608E-001  
  601.00  1.4691E-001  
  601.50  1.4726E-001  
  602.00  1.4766E-001  
  602.50  1.4814E-001  
  603.00  1.4903E-001  
  603.50  1.4997E-001  
  604.00  1.5041E-001  
  604.50  1.5043E-001  
  605.00  1.5017E-001  
  605.50  1.5034E-001  
  606.00  1.5071E-001  
  606.50  1.5136E-001  
  607.00  1.5143E-001  
  607.50  1.5182E-001  
  608.00  1.5215E-001  
  608.50  1.5257E-001  
  609.00  1.5260E-001  
  609.50  1.5252E-001  
  610.00  1.5288E-001  
  610.50  1.5322E-001  
  611.00  1.5365E-001  
  611.50  1.5368E-001  
  612.00  1.5384E-001  
  612.50  1.5375E-001  
  613.00  1.5349E-001  
  613.50  1.5325E-001  
  614.00  1.5334E-001  
  614.50  1.5381E-001  
  615.00  1.5414E-001  
  615.50  1.5418E-001  
  616.00  1.5403E-001  
  616.50  1.5395E-001  
  617.00  1.5367E-001  
  617.50  1.5339E-001  
  618.00  1.5323E-001  
  618.50  1.5265E-001  
  619.00  1.5210E-001  
  619.50  1.5196E-001  
  620.00  1.5221E-001  
  620.50  1.5258E-001  
  621.00  1.5214E-001  
  621.50  1.5178E-001  
  622.00  1.5149E-001  
  622.50  1.5137E-001  
  623.00  1.5133E-001  
  623.50  1.5074E-001  
  624.00  1.5010E-001  
  624.50  1.4940E-001  
  625.00  1.4915E-001  
  625.50  1.4885E-001  
  626.00  1.4871E-001  
  626.50  1.4816E-001  
  627.00  1.4755E-001  
  627.50  1.4686E-001  
  628.00  1.4659E-001  
  628.50  1.4645E-001  
  629.00  1.4562E-001  
  629.50  1.4475E-001  
  630.00  1.4395E-001  
  630.50  1.4383E-001  
  631.00  1.4395E-001  
  631.50  1.4369E-001  
  632.00  1.4287E-001  
  632.50  1.4141E-001  
  633.00  1.4026E-001  
  633.50  1.3982E-001  
  634.00  1.3971E-001  
  634.50  1.3972E-001  
  635.00  1.3912E-001  
  635.50  1.3827E-001  
  636.00  1.3719E-001  
  636.50  1.3655E-001  
  637.00  1.3595E-001  
  637.50  1.3508E-001  
  638.00  1.3422E-001  
  638.50  1.3376E-001  
  639.00  1.3350E-001  
  639.50  1.3256E-001  
  640.00  1.3117E-001  
  640.50  1.2969E-001  
  641.00  1.2887E-001  
  641.50  1.2804E-001  
  642.00  1.2764E-001  
  642.50  1.2696E-001  
  643.00  1.2610E-001  
  643.50  1.2548E-001  
  644.00  1.2459E-001  
  644.50  1.2386E-001  
  645.00  1.2277E-001  
  645.50  1.2189E-001  
  646.00  1.2114E-001  
  646.50  1.2046E-001  
  647.00  1.2002E-001  
  647.50  1.1970E-001  
  648.00  1.1901E-001  
  648.50  1.1809E-001  
  649.00  1.1681E-001  
  649.50  1.1576E-001  
  650.00  1.1458E-001  
  650.50  1.1386E-001  
  651.00  1.1266E-001  
  651.50  1.1156E-001  
  652.00  1.1083E-001  
  652.50  1.1015E-001  
  653.00  1.0943E-001  
  653.50  1.0802E-001  
  654.00  1.0678E-001  
  654.50  1.0594E-001  
  655.00  1.0536E-001  
  655.50  1.0483E-001  
  656.00  1.0394E-001  
  656.50  1.0275E-001  
  657.00  1.0153E-001  
  657.50  1.0036E-001  
  658.00  9.9746E-002  
  658.50  9.9061E-002  
  659.00  9.8064E-002  
  659.50  9.6705E-002  
  660.00  9.5724E-002  
  660.50  9.5001E-002  
  661.00  9.4441E-002  
  661.50  9.3181E-002  
  662.00  9.2187E-002  
  662.50  9.1196E-002  
  663.00  9.0348E-002  
  663.50  8.9429E-002  
  664.00  8.8767E-002  
  664.50  8.8185E-002  
  665.00  8.7266E-002  
  665.50  8.6066E-002  
  666.00  8.5005E-002  
  666.50  8.3904E-002  
  667.00  8.2749E-002  
  667.50  8.2090E-002  
  668.00  8.1315E-002  
  668.50  8.0175E-002  
  669.00  7.8780E-002  
  669.50  7.7774E-002  
  670.00  7.7281E-002  
  670.50  7.6667E-002  
  671.00  7.6083E-002  
  671.50  7.5218E-002  
  672.00  7.4225E-002  
  672.50  7.3512E-002  
  673.00  7.2684E-002  
  673.50  7.1993E-002  
  674.00  7.1012E-002  
  674.50  7.0134E-002  
  675.00  6.8779E-002  
  675.50  6.7874E-002  
  676.00  6.7107E-002  
  676.50  6.6619E-002  
  677.00  6.6020E-002  
  677.50  6.5750E-002  
  678.00  6.5106E-002  
  678.50  6.3857E-002  
  679.00  6.2528E-002  
  679.50  6.1630E-002  
  680.00  6.0776E-002  
  680.50  5.9899E-002  
  681.00  5.9304E-002  
